Zeit t / s,Spannung U_A1 / V,Spannung U_B1 / V
0,-0.0126,0.14415
0.02,-0.0126,0.14445
0.04,-0.0126,0.14445
0.06,-0.0132,0.14445
0.08,-0.01365,0.14445
0.099,-0.01245,0.1443
0.12,-0.0135,0.1443
0.14,-0.0135,0.14445
0.16,-0.01335,0.1443
0.18,-0.0126,0.14445
0.2,-0.01245,0.1446
0.22,-0.01245,0.1446
0.24,-0.01245,0.14445
0.26,-0.01245,0.14445
0.279,-0.01245,0.1446
0.3,-0.01335,0.1446
0.32,-0.01335,0.14445
0.34,-0.0135,0.1446
0.359,-0.0123,0.14445
0.38,-0.0126,0.1443
0.401,-0.01335,0.14445
0.42,-0.01335,0.14445
0.44,-0.01335,0.1443
0.46,-0.01335,0.14415
0.481,-0.01335,0.144
0.501,-0.01335,0.14415
0.52,-0.01335,0.1443
0.54,-0.01335,0.14445
0.56,-0.0135,0.14445
0.58,-0.01335,0.1443
0.6,-0.01245,0.1443
0.62,-0.01245,0.1443
0.64,-0.01245,0.1443
0.66,-0.0123,0.1443
0.68,-0.01245,0.1443
0.7,-0.0123,0.1443
0.72,-0.01245,0.14415
0.741,-0.01335,0.14415
0.76,-0.01245,0.14445
0.78,-0.0123,0.14445
0.8,-0.01245,0.1443
0.82,-0.0123,0.14415
0.841,-0.01335,0.14415
0.861,-0.01335,0.14415
0.881,-0.01335,0.14415
0.9,-0.01335,0.1443
0.92,-0.01335,0.14415
0.94,-0.01335,0.14415
0.96,-0.0132,0.14415
0.98,-0.01335,0.14415
1,-0.01335,0.1443
1.02,-0.0123,0.1443
1.04,-0.0123,0.14415
1.061,-0.01335,0.14415
1.081,-0.01335,0.14445
1.101,-0.01335,0.14445
1.121,-0.01335,0.14445
1.14,-0.01335,0.14445
1.16,-0.01335,0.14445
1.18,-0.0132,0.1443
1.2,-0.01335,0.14475
1.22,-0.0123,0.14475
1.24,-0.0123,0.14475
1.26,-0.0123,0.1446
1.28,-0.01215,0.1446
1.3,-0.0123,0.14475
1.32,-0.0123,0.14475
1.34,-0.01335,0.14445
1.36,-0.0132,0.1446
1.38,-0.0132,0.1446
1.399,-0.0123,0.1446
1.42,-0.0132,0.1446
1.44,-0.0132,0.1446
1.46,-0.0132,0.1446
1.479,-0.01215,0.1446
1.5,-0.0132,0.1446
1.52,-0.0132,0.14475
1.54,-0.0132,0.14475
1.56,-0.0132,0.14475
1.58,-0.0132,0.14475
1.6,-0.01335,0.14475
1.62,-0.01215,0.14475
1.64,-0.01215,0.14505
1.659,-0.0111,0.1449
1.68,-0.01215,0.14505
1.7,-0.0123,0.14505
1.72,-0.0123,0.14535
1.74,-0.0123,0.1449
1.76,-0.01215,0.14475
1.78,-0.01215,0.1446
1.8,-0.01215,0.14475
1.819,-0.0111,0.1449
1.84,-0.01215,0.14475
1.86,-0.012,0.14445
1.881,-0.01335,0.14475
1.901,-0.0132,0.1449
1.92,-0.0132,0.1449
1.94,-0.01215,0.14475
1.96,-0.01215,0.14475
1.98,-0.01215,0.1446
1.999,-0.01215,0.14475
2.02,-0.0132,0.14475
2.04,-0.01215,0.1446
2.06,-0.01215,0.14475
2.08,-0.01215,0.14475
2.1,-0.01215,0.1446
2.12,-0.01215,0.1446
2.14,-0.012,0.1446
2.16,-0.01215,0.14445
2.18,-0.01215,0.14445
2.201,-0.0132,0.14445
2.22,-0.01335,0.1443
2.24,-0.0132,0.14415
2.259,-0.01215,0.14445
2.28,-0.0132,0.14445
2.3,-0.0132,0.14445
2.32,-0.0132,0.1443
2.339,-0.01215,0.1446
2.36,-0.0132,0.14475
2.38,-0.01335,0.14475
2.4,-0.01215,0.14505
2.42,-0.0132,0.1449
2.44,-0.01215,0.1449
2.46,-0.01215,0.14475
2.481,-0.0132,0.1449
2.501,-0.0132,0.1449
2.521,-0.0132,0.14475
2.54,-0.0132,0.1446
2.56,-0.0132,0.1446
2.58,-0.0132,0.14475
2.6,-0.0132,0.1449
2.62,-0.0132,0.1449
2.64,-0.01335,0.14505
2.66,-0.0132,0.1449
2.68,-0.0132,0.1449
2.7,-0.01215,0.1449
2.72,-0.0132,0.14475
2.74,-0.01335,0.1446
2.76,-0.01305,0.14445
2.78,-0.012,0.14445
2.8,-0.012,0.1443
2.82,-0.012,0.1443
2.84,-0.012,0.14415
2.86,-0.012,0.1443
2.881,-0.01305,0.14445
2.9,-0.012,0.14445
2.92,-0.012,0.1446
2.94,-0.012,0.14445
2.96,-0.012,0.14415
2.98,-0.012,0.14415
3,-0.012,0.1443
3.021,-0.0132,0.14445
3.042,-0.01335,0.14445
3.06,-0.0132,0.14445
3.08,-0.0132,0.1443
3.1,-0.0132,0.1443
3.12,-0.01305,0.1443
3.14,-0.0132,0.1443
3.16,-0.01305,0.1443
3.18,-0.012,0.1443
3.199,-0.01185,0.1443
3.22,-0.0132,0.14445
3.24,-0.01305,0.1443
3.26,-0.01185,0.14445
3.279,-0.012,0.1446
3.3,-0.01305,0.14445
3.32,-0.0132,0.14445
3.34,-0.01305,0.1443
3.359,-0.01185,0.1443
3.381,-0.01305,0.1446
3.401,-0.0132,0.14445
3.42,-0.0129,0.1446
3.44,-0.0132,0.1446
3.46,-0.0129,0.14445
3.48,-0.01185,0.14445
3.5,-0.01185,0.1446
3.52,-0.01185,0.14445
3.541,-0.01305,0.14445
3.56,-0.012,0.14445
3.58,-0.01185,0.1443
3.6,-0.01185,0.1443
3.621,-0.0129,0.14415
3.64,-0.01305,0.14415
3.66,-0.01305,0.14415
3.68,-0.01185,0.14415
3.7,-0.01185,0.1443
3.72,-0.01185,0.14445
3.74,-0.01185,0.1446
3.76,-0.012,0.1443
3.78,-0.01185,0.14415
3.801,-0.01305,0.14415
3.82,-0.0129,0.144
3.84,-0.0129,0.1437
3.86,-0.01305,0.14355
3.88,-0.0129,0.14325
3.9,-0.01305,0.1431
3.92,-0.01185,0.1431
3.94,-0.01185,0.14295
3.96,-0.01185,0.1428
3.98,-0.01185,0.14265
4,-0.01185,0.14235
4.02,-0.01185,0.14205
4.04,-0.01185,0.14175
4.06,-0.01185,0.14145
4.081,-0.01305,0.1413
4.101,-0.01305,0.141
4.121,-0.01305,0.14085
4.14,-0.0141,0.1407
4.16,-0.0114,0.14055
4.18,-0.00825,0.1404
4.2,-0.00735,0.1404
4.22,-0.0069,0.14025
4.239,-0.00645,0.13995
4.26,-0.00735,0.1395
4.28,-0.00705,0.13935
4.3,-0.00675,0.1395
4.32,-0.00645,0.1395
4.34,-0.00495,0.1395
4.36,-0.0048,0.1392
4.38,-0.00465,0.1389
4.4,-0.00465,0.13905
4.419,-0.0045,0.1389
4.44,-0.0045,0.13875
4.46,-0.00435,0.1386
4.48,-0.00435,0.13875
4.5,-0.0042,0.1389
4.52,-0.0042,0.13875
4.54,-0.00405,0.1389
4.56,-0.00405,0.1386
4.58,-0.0039,0.13845
4.599,-0.003,0.13845
4.62,-0.00375,0.1386
4.641,-0.0051,0.13875
4.661,-0.00495,0.13845
4.68,-0.00495,0.1383
4.7,-0.00495,0.13815
4.72,-0.00495,0.13845
4.74,-0.0048,0.1383
4.76,-0.00345,0.13845
4.781,-0.0048,0.1383
4.8,-0.0048,0.13815
4.82,-0.00465,0.138
4.84,-0.00465,0.138
4.86,-0.0033,0.138
4.88,-0.0033,0.13815
4.9,-0.0033,0.138
4.921,-0.00465,0.138
4.941,-0.00465,0.138
4.96,-0.0045,0.138
4.98,-0.0045,0.138
5,-0.0045,0.138
5.02,-0.00435,0.138
5.04,-0.00435,0.1377
5.06,-0.00435,0.13755
5.08,-0.003,0.13785
5.1,-0.003,0.13785
5.121,-0.00435,0.13785
5.14,-0.003,0.13785
5.161,-0.0042,0.1377
5.181,-0.0042,0.13785
5.2,-0.00285,0.13785
5.221,-0.00435,0.13785
5.24,-0.0042,0.13785
5.26,-0.0042,0.13785
5.28,-0.0042,0.13785
5.3,-0.00405,0.138
5.32,-0.00405,0.13785
5.34,-0.0042,0.1377
5.36,-0.0042,0.1377
5.38,-0.00285,0.1377
5.4,-0.00285,0.1377
5.42,-0.00285,0.13755
5.44,-0.00285,0.1377
5.46,-0.00285,0.13755
5.48,-0.00285,0.1377
5.5,-0.0027,0.13785
5.521,-0.0042,0.1377
5.541,-0.0042,0.1377
5.561,-0.0042,0.13785
5.581,-0.0042,0.13785
5.6,-0.0042,0.1377
5.62,-0.0042,0.1377
5.64,-0.0042,0.1377
5.66,-0.0042,0.13755
5.68,-0.0042,0.13755
5.699,-0.00285,0.1377
5.72,-0.0042,0.1377
5.74,-0.00405,0.1377
5.76,-0.0027,0.13785
5.779,-0.00285,0.13755
5.8,-0.0042,0.1374
5.82,-0.0042,0.1374
5.84,-0.00285,0.13755
5.86,-0.00285,0.13785
5.88,-0.00285,0.1377
5.9,-0.00285,0.1377
5.92,-0.00285,0.1377
5.94,-0.0027,0.13755
5.959,-0.0021,0.13755
5.98,-0.00285,0.1377
6,-0.00285,0.138
6.02,-0.00285,0.138
6.039,-0.0021,0.13785
6.06,-0.00285,0.138
6.081,-0.0042,0.13785
6.101,-0.0042,0.13785
6.121,-0.0042,0.13785
6.141,-0.0042,0.13785
6.161,-0.00405,0.13785
6.18,-0.0042,0.1377
6.2,-0.0042,0.13785
6.22,-0.0027,0.138
6.24,-0.0045,0.138
6.26,-0.0027,0.13785
6.28,-0.0027,0.1377
6.3,-0.0027,0.13785
6.32,-0.0027,0.13785
6.34,-0.0027,0.13785
6.361,-0.0039,0.138
6.381,-0.00405,0.138
6.401,-0.00405,0.13785
6.42,-0.00405,0.13785
6.44,-0.00405,0.1377
6.46,-0.00405,0.1377
6.48,-0.00255,0.13785
6.5,-0.0027,0.138
6.52,-0.0027,0.1377
6.54,-0.00255,0.1377
6.559,-0.0018,0.1377
6.58,-0.00435,0.13785
6.6,-0.00255,0.138
6.62,-0.0027,0.138
6.639,-0.00195,0.13815
6.66,-0.00255,0.138
6.68,-0.00255,0.138
6.7,-0.00255,0.138
6.72,-0.00255,0.13785
6.74,-0.00405,0.138
6.76,-0.00255,0.13815
6.78,-0.0027,0.13785
6.8,-0.00255,0.13785
6.819,-0.0018,0.1377
6.84,-0.00255,0.1377
6.86,-0.00255,0.13785
6.88,-0.0027,0.13785
6.9,-0.00255,0.1377
6.919,-0.0018,0.1377
6.94,-0.00255,0.1377
6.96,-0.00255,0.1374
6.98,-0.00255,0.1377
6.999,-0.00195,0.13785
7.02,-0.0039,0.13785
7.04,-0.00255,0.1377
7.06,-0.00255,0.13755
7.08,-0.00255,0.1377
7.1,-0.00255,0.1377
7.12,-0.00255,0.1377
7.14,-0.0024,0.1377
7.16,-0.0024,0.1377
7.181,-0.0039,0.13785
7.201,-0.00375,0.138
7.221,-0.0039,0.13815
7.24,-0.0039,0.13785
7.26,-0.0039,0.13785
7.28,-0.0024,0.13785
7.3,-0.0039,0.13755
7.32,-0.0024,0.13755
7.34,-0.0024,0.1374
7.36,-0.0024,0.13755
7.38,-0.0024,0.1377
7.4,-0.0024,0.1377
7.42,-0.0024,0.1374
7.44,-0.0024,0.13755
7.461,-0.00375,0.13785
7.481,-0.00375,0.13755
7.501,-0.0039,0.13755
7.52,-0.0039,0.13755
7.54,-0.00375,0.13755
7.56,-0.0024,0.1377
7.58,-0.0039,0.13755
7.6,-0.0024,0.1377
7.62,-0.0024,0.13785
7.64,-0.0024,0.13785
7.66,-0.0024,0.13785
7.68,-0.0024,0.13785
7.7,-0.0024,0.13785
7.721,-0.0042,0.13815
7.741,-0.00375,0.138
7.761,-0.00375,0.13785
7.781,-0.00375,0.13785
7.8,-0.0039,0.138
7.82,-0.0039,0.13815
7.84,-0.0039,0.138
7.86,-0.0039,0.13785
7.88,-0.0024,0.13785
7.9,-0.0024,0.13785
7.92,-0.0024,0.138
7.94,-0.0024,0.13785
7.959,-0.00255,0.13785
7.98,-0.00375,0.138
8,-0.00405,0.1383
8.02,-0.0024,0.138
8.04,-0.00255,0.138
8.06,-0.0024,0.138
8.08,-0.0024,0.13785
8.1,-0.00255,0.13785
8.12,-0.00255,0.13785
8.14,-0.0024,0.13785
8.161,-0.0039,0.13785
8.181,-0.00405,0.138
8.2,-0.0039,0.138
8.22,-0.0039,0.138
8.24,-0.0039,0.138
8.26,-0.0039,0.138
8.28,-0.0039,0.138
8.3,-0.0039,0.13785
8.32,-0.00405,0.138
8.34,-0.00255,0.13815
8.361,-0.0039,0.13815
8.38,-0.0024,0.138
8.4,-0.00255,0.13815
8.421,-0.0039,0.13815
8.441,-0.0039,0.138
8.461,-0.00405,0.13785
8.48,-0.0024,0.138
8.5,-0.00255,0.138
8.52,-0.00255,0.138
8.54,-0.00255,0.13815
8.56,-0.0024,0.13815
8.58,-0.00255,0.13785
8.601,-0.00405,0.1377
8.621,-0.0039,0.1377
8.64,-0.00405,0.13755
8.66,-0.0039,0.1377
8.68,-0.00405,0.13785
8.7,-0.0039,0.13815
8.72,-0.00405,0.138
8.74,-0.00255,0.138
8.76,-0.00255,0.13785
8.78,-0.00255,0.138
8.8,-0.00255,0.138
8.82,-0.00255,0.13815
8.84,-0.00255,0.13815
8.861,-0.0039,0.138
8.881,-0.00405,0.138
8.901,-0.00405,0.13785
8.92,-0.00255,0.13785
8.94,-0.00255,0.13785
8.96,-0.00255,0.13785
8.98,-0.00255,0.1377
8.999,-0.00195,0.1377
9.02,-0.00255,0.1377
9.04,-0.00255,0.13755
9.06,-0.00255,0.13785
9.08,-0.00255,0.13785
9.099,-0.00195,0.13785
9.12,-0.0027,0.13785
9.14,-0.00255,0.138
9.16,-0.00255,0.13815
9.181,-0.00405,0.13815
9.201,-0.0039,0.13815
9.221,-0.00405,0.138
9.241,-0.0039,0.138
9.26,-0.00255,0.13785
9.28,-0.00255,0.13755
9.3,-0.00255,0.1374
9.321,-0.0039,0.1374
9.341,-0.00405,0.13755
9.36,-0.00255,0.1374
9.38,-0.00255,0.1374
9.4,-0.00255,0.1374
9.42,-0.00255,0.13725
9.441,-0.0039,0.1374
9.461,-0.0039,0.1377
9.481,-0.00405,0.1377
9.5,-0.0039,0.1377
9.52,-0.0039,0.13755
9.54,-0.00405,0.1377
9.562,-0.00435,0.13755
9.58,-0.0039,0.1377
9.6,-0.00255,0.13785
9.62,-0.00255,0.13755
9.64,-0.00255,0.1377
9.66,-0.0024,0.1377
9.68,-0.00255,0.1377
9.7,-0.00255,0.1377
9.72,-0.0024,0.1377
9.74,-0.0039,0.13755
9.76,-0.0039,0.1377
9.78,-0.0039,0.1377
9.8,-0.0024,0.13755
9.821,-0.0039,0.13755
9.841,-0.0039,0.13755
9.86,-0.00375,0.13755
9.88,-0.0024,0.13755
9.901,-0.0039,0.13755
9.921,-0.00375,0.1374
9.94,-0.0039,0.13755
9.96,-0.00375,0.13755
9.98,-0.0039,0.13755
10,-0.00375,0.1374
10.02,-0.0024,0.1377
10.04,-0.00225,0.1377
10.06,-0.0024,0.1377
10.08,-0.0024,0.13785
10.1,-0.0024,0.138
10.119,-0.0024,0.138
10.14,-0.00375,0.13785
10.16,-0.00375,0.13785
10.18,-0.0024,0.1377
10.2,-0.0024,0.1377
10.22,-0.0024,0.1377
10.24,-0.0024,0.1377
10.26,-0.0024,0.1377
10.281,-0.0039,0.1377
10.301,-0.00375,0.13785
10.321,-0.00375,0.138
10.34,-0.00375,0.1377
10.36,-0.00375,0.1377
10.38,-0.00375,0.13785
10.4,-0.00375,0.13785
10.42,-0.00225,0.138
10.44,-0.0024,0.13785
10.46,-0.00225,0.138
10.479,-0.0024,0.13785
10.5,-0.00375,0.13785
10.52,-0.00375,0.13785
10.54,-0.0024,0.13785
10.56,-0.0024,0.138
10.581,-0.00375,0.13785
10.601,-0.00375,0.13815
10.62,-0.00375,0.138
10.64,-0.00375,0.13785
10.66,-0.0024,0.138
10.68,-0.00375,0.13785
10.7,-0.00225,0.13785
10.72,-0.00225,0.13785
10.74,-0.0024,0.13785
10.76,-0.00225,0.13815
10.78,-0.00225,0.138
10.8,-0.00225,0.1377
10.821,-0.00375,0.1377
10.841,-0.00375,0.13785
10.861,-0.0036,0.13785
10.88,-0.00375,0.13785
10.9,-0.00375,0.13785
10.92,-0.0036,0.13785
10.94,-0.00375,0.13785
10.96,-0.00375,0.13785
10.98,-0.00375,0.1377
11,-0.00225,0.13785
11.02,-0.0024,0.13815
11.04,-0.0042,0.13815
11.06,-0.00225,0.138
11.081,-0.0036,0.138
11.1,-0.00225,0.13785
11.12,-0.00225,0.1377
11.14,-0.00225,0.13755
11.16,-0.00225,0.13755
11.179,-0.00165,0.1374
11.2,-0.00225,0.13725
11.22,-0.00225,0.1374
11.24,-0.00225,0.13755
11.259,-0.0021,0.1377
11.28,-0.00225,0.1377
11.3,-0.0021,0.1377
11.32,-0.00225,0.1377
11.339,-0.00165,0.1377
11.36,-0.00225,0.13755
11.38,-0.0021,0.1377
11.4,-0.00225,0.1377
11.42,-0.00225,0.13785
11.439,-0.0015,0.13785
11.46,-0.0021,0.13755
11.48,-0.0021,0.13755
11.5,-0.0021,0.1377
11.52,-0.0021,0.1377
11.541,-0.0036,0.138
11.561,-0.0036,0.13785
11.581,-0.0036,0.1377
11.601,-0.0036,0.1377
11.62,-0.0036,0.1377
11.64,-0.0036,0.1377
11.66,-0.00345,0.13755
11.68,-0.0036,0.13755
11.7,-0.0021,0.13755
11.72,-0.0021,0.13755
11.741,-0.0036,0.1377
11.76,-0.0021,0.13755
11.781,-0.0036,0.13755
11.8,-0.00345,0.13755
11.82,-0.0036,0.13755
11.84,-0.00345,0.13755
11.86,-0.0036,0.13755
11.879,-0.0021,0.13755
11.9,-0.0036,0.1374
11.92,-0.0036,0.1374
11.94,-0.00345,0.13785
11.96,-0.0021,0.13755
11.98,-0.0021,0.13755
12,-0.0021,0.13725
12.02,-0.0021,0.13725
12.04,-0.0021,0.13755
12.061,-0.00345,0.13755
12.081,-0.0036,0.1377
12.1,-0.00345,0.1377
12.12,-0.0036,0.1377
12.14,-0.0021,0.13755
12.161,-0.0036,0.13755
12.181,-0.0036,0.1374
12.2,-0.0036,0.13725
12.22,-0.0021,0.13755
12.24,-0.0021,0.13755
12.26,-0.0036,0.13755
12.28,-0.0021,0.13755
12.3,-0.0021,0.1377
12.319,-0.0021,0.138
12.34,-0.00345,0.1377
12.36,-0.0036,0.1377
12.38,-0.00345,0.1377
12.4,-0.00345,0.1377
12.42,-0.00345,0.1377
12.44,-0.0021,0.1377
12.46,-0.0021,0.1377
12.479,-0.0021,0.1377
12.5,-0.0021,0.13755
12.52,-0.00195,0.1377
12.54,-0.0021,0.1377
12.56,-0.00195,0.13755
12.58,-0.0021,0.1377
12.6,-0.0021,0.1377
12.62,-0.0021,0.13755
12.641,-0.0036,0.13755
12.66,-0.0021,0.13755
12.68,-0.0021,0.13725
12.701,-0.00345,0.1371
12.721,-0.00345,0.13725
12.741,-0.00345,0.13755
12.76,-0.0021,0.1374
12.78,-0.00345,0.13725
12.8,-0.0036,0.13725
12.82,-0.00345,0.13725
12.839,-0.0021,0.1371
12.86,-0.0036,0.1374
12.88,-0.00345,0.1374
12.9,-0.00345,0.1374
12.92,-0.0036,0.13755
12.939,-0.00195,0.13755
12.96,-0.00345,0.1377
12.98,-0.0036,0.13785
13,-0.00345,0.138
13.019,-0.00195,0.1377
13.04,-0.00345,0.1377
13.06,-0.0036,0.13755
13.08,-0.00345,0.1377
13.1,-0.0036,0.1377
13.12,-0.00345,0.1377
13.14,-0.00195,0.13785
13.16,-0.00195,0.1377
13.18,-0.00195,0.1374
13.2,-0.00195,0.13755
13.221,-0.00345,0.13755
13.241,-0.00345,0.1377
13.261,-0.00345,0.1377
13.28,-0.00195,0.1377
13.3,-0.00195,0.13785
13.32,-0.00195,0.1377
13.34,-0.0021,0.13755
13.36,-0.0021,0.1377
13.38,-0.00345,0.1377
13.4,-0.00195,0.13785
13.42,-0.00195,0.1377
13.44,-0.0021,0.13755
13.459,-0.0015,0.13725
13.48,-0.00195,0.1374
13.5,-0.00195,0.13725
13.52,-0.00195,0.13725
13.539,-0.0015,0.1371
13.56,-0.00195,0.1371
13.58,-0.00195,0.13755
13.6,-0.00195,0.13755
13.62,-0.00195,0.1374
13.64,-0.00195,0.13725
13.66,-0.00195,0.1371
13.681,-0.00345,0.1371
13.701,-0.00345,0.1371
13.72,-0.00195,0.1371
13.74,-0.00195,0.1371
13.76,-0.00195,0.1371
13.78,-0.00195,0.13725
13.801,-0.00345,0.13725
13.821,-0.00345,0.13725
13.84,-0.00345,0.1374
13.86,-0.0033,0.1374
13.88,-0.00345,0.13755
13.899,-0.00195,0.13755
13.92,-0.00345,0.1374
13.94,-0.00345,0.1374
13.96,-0.00345,0.13725
13.979,-0.00195,0.1374
14,-0.00345,0.13725
14.02,-0.0033,0.1371
14.04,-0.00345,0.1374
14.06,-0.0033,0.1374
14.08,-0.0021,0.13725
14.1,-0.0021,0.13725
14.12,-0.00195,0.1371
14.14,-0.00195,0.13725
14.159,-0.0015,0.13725
14.18,-0.00345,0.1374
14.2,-0.0033,0.13725
14.22,-0.00345,0.13725
14.24,-0.00345,0.1374
14.26,-0.00345,0.1374
14.28,-0.0033,0.1374
14.3,-0.00195,0.1374
14.32,-0.00195,0.13755
14.339,-0.00195,0.13755
14.36,-0.0033,0.13755
14.38,-0.00345,0.13755
14.4,-0.0033,0.1374
14.42,-0.0033,0.13725
14.44,-0.00195,0.13725
14.46,-0.00195,0.1371
14.48,-0.0033,0.13725
14.5,-0.00195,0.13725
14.519,-0.0015,0.13725
14.54,-0.00195,0.13725
14.56,-0.00195,0.1374
14.581,-0.00345,0.1374
14.601,-0.0033,0.1374
14.62,-0.00345,0.1374
14.64,-0.00345,0.1374
14.66,-0.00195,0.1371
14.68,-0.00195,0.13725
14.699,-0.00195,0.13725
14.72,-0.0033,0.13725
14.74,-0.00345,0.13695
14.76,-0.0033,0.1371
14.779,-0.00195,0.13725
14.8,-0.0033,0.1374
14.82,-0.0039,0.13725
14.84,-0.00195,0.1374
14.86,-0.00195,0.13755
14.879,-0.00195,0.13755
14.9,-0.0033,0.13755
14.92,-0.0033,0.13755
14.94,-0.00345,0.13755
14.96,-0.00195,0.1374
14.98,-0.00195,0.1374
15,-0.00195,0.1377
15.02,-0.00195,0.13755
15.039,-0.00135,0.1377
15.06,-0.00195,0.1377
15.08,-0.00195,0.13755
15.1,-0.00195,0.1374
15.12,-0.00195,0.1374
15.14,-0.00195,0.13755
15.161,-0.0033,0.1374
15.181,-0.0033,0.13755
15.2,-0.00345,0.13755
15.22,-0.00195,0.13755
15.24,-0.00195,0.13755
15.26,-0.0018,0.13755
15.281,-0.00345,0.1377
15.301,-0.0033,0.13755
15.321,-0.0033,0.1377
15.341,-0.0033,0.1377
15.361,-0.0033,0.1377
15.38,-0.0033,0.1374
15.4,-0.0033,0.1377
15.42,-0.00345,0.1377
15.44,-0.0033,0.1377
15.46,-0.0033,0.1377
15.48,-0.00195,0.13755
15.5,-0.00195,0.1377
15.52,-0.00195,0.1377
15.54,-0.00195,0.13755
15.56,-0.00195,0.13755
15.58,-0.00195,0.13755
15.6,-0.00195,0.1377
15.621,-0.00345,0.13755
15.641,-0.0033,0.13755
15.661,-0.0033,0.13755
15.68,-0.00345,0.13755
15.7,-0.0033,0.1377
15.72,-0.00345,0.1377
15.74,-0.0033,0.13755
15.76,-0.00345,0.13725
15.78,-0.0033,0.13725
15.8,-0.00195,0.13725
15.82,-0.00195,0.13725
15.84,-0.00195,0.13725
15.859,-0.00135,0.13725
15.88,-0.00195,0.13725
15.9,-0.00195,0.1374
15.92,-0.00195,0.13725
15.939,-0.00195,0.13755
15.96,-0.0033,0.1377
15.98,-0.0033,0.13755
16,-0.0033,0.13755
16.02,-0.0033,0.13755
16.04,-0.00195,0.13725
16.061,-0.00345,0.13725
16.081,-0.00315,0.13725
16.101,-0.00345,0.13725
16.12,-0.00195,0.1374
16.141,-0.0033,0.1374
16.16,-0.0033,0.13725
16.18,-0.0033,0.1374
16.2,-0.00195,0.13755
16.22,-0.00195,0.1374
16.24,-0.00195,0.1371
16.26,-0.00195,0.1371
16.28,-0.00195,0.13695
16.3,-0.0018,0.1371
16.32,-0.00195,0.13725
16.341,-0.00345,0.1374
16.36,-0.0033,0.13755
16.38,-0.00345,0.1377
16.4,-0.0033,0.13755
16.42,-0.0033,0.1374
16.44,-0.00315,0.1374
16.459,-0.0039,0.13755
16.48,-0.0033,0.13755
16.5,-0.0033,0.13755
16.52,-0.0018,0.13755
16.54,-0.00195,0.1377
16.56,-0.0018,0.1377
16.58,-0.0018,0.13785
16.6,-0.0018,0.1377
16.62,-0.0018,0.13755
16.639,-0.00135,0.13755
16.66,-0.00195,0.1377
16.68,-0.0018,0.1377
16.7,-0.0018,0.1377
16.72,-0.00195,0.1377
16.739,-0.0018,0.1377
16.76,-0.0018,0.13785
16.78,-0.00195,0.1377
16.8,-0.00195,0.1377
16.82,-0.00195,0.13755
16.839,-0.0018,0.1374
16.86,-0.0018,0.13755
16.88,-0.0018,0.1377
16.9,-0.00195,0.13755
16.919,-0.00135,0.1374
16.942,-0.0039,0.1374
16.96,-0.0018,0.1377
16.98,-0.0018,0.138
17,-0.0018,0.13785
17.02,-0.0018,0.13755
17.041,-0.0033,0.13755
17.061,-0.0033,0.13755
17.081,-0.0039,0.1374
17.1,-0.0033,0.1377
17.12,-0.0018,0.1377
17.14,-0.00195,0.13785
17.161,-0.0033,0.1377
17.181,-0.0033,0.1377
17.2,-0.0018,0.1377
17.22,-0.0018,0.1377
17.24,-0.0018,0.1377
17.26,-0.0018,0.1374
17.28,-0.0018,0.13725
17.3,-0.0018,0.13755
17.32,-0.0018,0.13755
17.34,-0.0018,0.1374
17.359,-0.00135,0.1374
17.38,-0.0018,0.13755
17.401,-0.0033,0.13755
17.42,-0.0018,0.1374
17.439,-0.00135,0.13755
17.46,-0.0018,0.13755
17.48,-0.0018,0.1374
17.5,-0.0018,0.13755
17.519,-0.0033,0.13755
17.54,-0.0018,0.1374
17.56,-0.0018,0.13755
17.58,-0.0018,0.13755
17.6,-0.00195,0.13755
17.62,-0.0018,0.13755
17.64,-0.00405,0.1377
17.661,-0.00315,0.1377
17.681,-0.0033,0.1377
17.701,-0.0033,0.13755
17.721,-0.0033,0.13755
17.741,-0.0033,0.13755
17.76,-0.00315,0.1377
17.78,-0.00315,0.1377
17.8,-0.0033,0.1377
17.82,-0.00315,0.1377
17.84,-0.0033,0.13785
17.86,-0.00315,0.13785
17.88,-0.00315,0.1377
17.9,-0.00315,0.1377
17.92,-0.00315,0.13785
17.94,-0.0018,0.138
17.96,-0.0018,0.13785
17.98,-0.0018,0.1377
18,-0.0018,0.1377
18.02,-0.0018,0.1377
18.041,-0.0033,0.13755
18.06,-0.0033,0.13755
18.08,-0.0018,0.1377
18.1,-0.0018,0.13785
18.12,-0.0018,0.13785
18.14,-0.0018,0.13785
18.16,-0.00315,0.1377
18.18,-0.0018,0.1377
18.2,-0.0018,0.1377
18.22,-0.0018,0.13785
18.239,-0.00135,0.13785
18.26,-0.0018,0.13755
18.28,-0.0018,0.13755
18.3,-0.0018,0.1377
18.319,-0.0018,0.13785
18.34,-0.0033,0.1377
18.36,-0.00315,0.13755
18.38,-0.00315,0.13755
18.4,-0.00315,0.13785
18.419,-0.00165,0.13785
18.44,-0.00315,0.13785
18.46,-0.00315,0.1377
18.48,-0.00315,0.13755
18.5,-0.00165,0.13755
18.52,-0.0018,0.1377
18.54,-0.00165,0.13785
18.56,-0.0018,0.1377
18.58,-0.0018,0.13755
18.6,-0.0018,0.13755
18.62,-0.00165,0.13755
18.641,-0.00315,0.1377
18.661,-0.00315,0.13755
18.68,-0.00315,0.1377
18.7,-0.00315,0.1377
18.72,-0.0018,0.13785
18.74,-0.0018,0.13785
18.76,-0.0018,0.13755
18.78,-0.0018,0.13755
18.8,-0.0018,0.13755
18.82,-0.0018,0.1374
18.84,-0.0018,0.1377
18.86,-0.00165,0.13755
18.88,-0.0018,0.1377
18.9,-0.00165,0.1377
18.919,-0.00135,0.1377
18.94,-0.0018,0.13755
18.96,-0.00165,0.13785
18.98,-0.0018,0.1377
18.999,-0.0012,0.13755
19.021,-0.00375,0.1374
19.041,-0.00315,0.13755
19.061,-0.003,0.1377
19.081,-0.00315,0.13785
19.1,-0.0018,0.1377
19.12,-0.0018,0.138
19.14,-0.0018,0.13785
19.16,-0.0018,0.13785
19.18,-0.00165,0.138
19.201,-0.00315,0.13785
19.221,-0.00315,0.13785
19.24,-0.00315,0.13785
19.26,-0.00315,0.138
19.281,-0.00315,0.13785
19.301,-0.00315,0.13785
19.321,-0.00315,0.1377
19.34,-0.00315,0.1377
19.36,-0.00315,0.1377
19.38,-0.00315,0.1377
19.4,-0.00315,0.138
19.42,-0.00315,0.138
19.44,-0.0018,0.138
19.46,-0.00165,0.1377
19.48,-0.00315,0.1377
19.5,-0.00165,0.1377
19.52,-0.0018,0.1377
19.54,-0.0018,0.13785
19.56,-0.00315,0.1377
19.58,-0.00315,0.13755
19.6,-0.00315,0.13755
19.62,-0.00165,0.13755
19.64,-0.00165,0.13755
19.66,-0.0018,0.13785
19.681,-0.003,0.13785
19.7,-0.00315,0.138
19.721,-0.0039,0.13815
19.74,-0.00315,0.13815
19.76,-0.003,0.13785
19.78,-0.00315,0.13785
19.799,-0.00165,0.13785
19.82,-0.00315,0.138
19.84,-0.0018,0.138
19.86,-0.00165,0.13755
19.88,-0.00165,0.13785
19.899,-0.0012,0.138
19.92,-0.00165,0.138
19.94,-0.0018,0.138
19.96,-0.00165,0.138
19.98,-0.00165,0.13755
20,-0.00315,0.1377
20.02,-0.00315,0.13755
20.04,-0.00315,0.1374
20.061,-0.00315,0.13755
20.08,-0.003,0.1377
20.1,-0.00315,0.1377
20.12,-0.003,0.13755
20.14,-0.00315,0.13755
20.16,-0.00165,0.13755
20.181,-0.00315,0.13755
20.201,-0.003,0.1377
20.22,-0.00315,0.1377
20.24,-0.003,0.13785
20.26,-0.003,0.1377
20.28,-0.00315,0.13785
20.3,-0.003,0.13785
20.32,-0.00165,0.13785
20.34,-0.00165,0.13785
20.36,-0.00165,0.1377
20.38,-0.00165,0.1377
20.401,-0.00315,0.1377
20.42,-0.00165,0.13785
20.44,-0.00165,0.1377
20.46,-0.00165,0.13785
20.48,-0.00165,0.1377
20.499,-0.0012,0.13785
20.52,-0.00165,0.1377
20.54,-0.00165,0.1377
20.56,-0.00165,0.1377
20.581,-0.003,0.13755
20.601,-0.00315,0.1377
20.62,-0.003,0.138
20.64,-0.003,0.138
20.66,-0.00315,0.138
20.68,-0.00165,0.1377
20.7,-0.00165,0.13755
20.72,-0.00165,0.1377
20.74,-0.00165,0.13785
20.761,-0.003,0.1377
20.78,-0.00165,0.1377
20.8,-0.00165,0.1377
20.82,-0.00165,0.13785
20.84,-0.00165,0.1377
20.86,-0.00165,0.1377
20.881,-0.003,0.138
20.901,-0.003,0.13785
20.92,-0.003,0.13785
20.94,-0.00165,0.13785
20.96,-0.00315,0.13785
20.98,-0.003,0.13785
21.001,-0.00405,0.13785
21.02,-0.003,0.138
21.04,-0.00165,0.13785
21.061,-0.003,0.13785
21.081,-0.003,0.13785
21.101,-0.00315,0.138
21.12,-0.00165,0.13815
21.14,-0.003,0.138
21.16,-0.003,0.138
21.18,-0.00165,0.1377
21.2,-0.00165,0.138
21.22,-0.0015,0.13785
21.24,-0.00165,0.13755
21.26,-0.00165,0.13755
21.28,-0.00165,0.1377
21.299,-0.0012,0.1377
21.32,-0.00165,0.13755
21.34,-0.00165,0.1377
21.36,-0.00165,0.1377
21.38,-0.00165,0.1377
21.399,-0.0012,0.13785
21.42,-0.00165,0.13785
21.44,-0.003,0.13785
21.46,-0.00165,0.13785
21.48,-0.00165,0.1377
21.501,-0.003,0.13785
21.521,-0.00285,0.1377
21.54,-0.003,0.1377
21.56,-0.00165,0.1377
21.58,-0.00165,0.13755
21.601,-0.003,0.13755
21.621,-0.003,0.1377
21.641,-0.003,0.1377
21.66,-0.00165,0.13755
21.68,-0.00165,0.13755
21.7,-0.00165,0.1377
21.72,-0.0015,0.1377
21.739,-0.00165,0.13785
21.76,-0.003,0.138
21.78,-0.003,0.13755
21.8,-0.00165,0.1374
21.82,-0.00165,0.13755
21.841,-0.003,0.1377
21.861,-0.003,0.13785
21.88,-0.00285,0.13785
21.9,-0.003,0.13785
21.92,-0.00165,0.1377
21.94,-0.00165,0.13755
21.96,-0.00165,0.1377
21.98,-0.00165,0.13785
22,-0.00165,0.1377
22.019,-0.0012,0.13785
22.04,-0.00165,0.138
22.06,-0.00165,0.138
22.08,-0.00165,0.138
22.099,-0.00165,0.13785
22.12,-0.003,0.13785
22.14,-0.00165,0.138
22.16,-0.00165,0.138
22.18,-0.00165,0.138
22.199,-0.00165,0.138
22.22,-0.003,0.1377
22.24,-0.003,0.1377
22.26,-0.003,0.138
22.279,-0.00165,0.13785
22.3,-0.003,0.13785
22.32,-0.00165,0.13755
22.34,-0.00165,0.13755
22.36,-0.00165,0.1377
22.38,-0.00165,0.13785
22.4,-0.00165,0.13785
22.42,-0.00165,0.13785
22.44,-0.00165,0.1377
22.459,-0.00165,0.1377
22.48,-0.00165,0.13785
22.5,-0.00165,0.1377
22.52,-0.00165,0.1377
22.54,-0.00165,0.1377
22.561,-0.003,0.1377
22.58,-0.003,0.1377
22.6,-0.003,0.1377
22.62,-0.00285,0.1377
22.64,-0.003,0.13785
22.66,-0.00285,0.13785
22.68,-0.003,0.138
22.7,-0.003,0.138
22.721,-0.003,0.1377
22.74,-0.00165,0.1377
22.76,-0.00165,0.13785
22.781,-0.003,0.13815
22.801,-0.003,0.13815
22.82,-0.003,0.13845
22.84,-0.003,0.13815
22.86,-0.003,0.13785
22.88,-0.003,0.13785
22.899,-0.00165,0.138
22.92,-0.003,0.138
22.942,-0.0039,0.13755
22.96,-0.003,0.13755
22.98,-0.00165,0.13755
23,-0.00165,0.1377
23.02,-0.00165,0.138
23.04,-0.00165,0.138
23.06,-0.00165,0.13785
23.079,-0.0012,0.1377
23.1,-0.00165,0.138
23.12,-0.00165,0.13785
23.14,-0.00165,0.13785
23.16,-0.00165,0.138
23.181,-0.00285,0.13785
23.201,-0.003,0.1377
23.221,-0.00285,0.13785
23.24,-0.003,0.13785
23.26,-0.00165,0.138
23.28,-0.00165,0.138
23.301,-0.003,0.138
23.32,-0.0015,0.1377
23.341,-0.003,0.1377
23.36,-0.00285,0.13785
23.38,-0.00285,0.1377
23.4,-0.003,0.1377
23.42,-0.003,0.13755
23.44,-0.00165,0.13785
23.46,-0.00285,0.13785
23.48,-0.003,0.138
23.5,-0.00285,0.138
23.519,-0.00165,0.1377
23.541,-0.00285,0.13755
23.56,-0.00285,0.1374
23.58,-0.003,0.1377
23.6,-0.00285,0.13755
23.619,-0.0015,0.13755
23.64,-0.003,0.13755
23.66,-0.0015,0.13755
23.68,-0.00165,0.1377
23.7,-0.0015,0.13755
23.72,-0.0015,0.1377
23.74,-0.0015,0.13785
23.76,-0.00165,0.13785
23.78,-0.00165,0.13755
23.799,-0.0012,0.13755
23.82,-0.0015,0.1374
23.84,-0.0015,0.13755
23.86,-0.00165,0.13755
23.879,-0.0012,0.13755
23.9,-0.003,0.1377
23.92,-0.00285,0.1377
23.94,-0.0015,0.1377
23.96,-0.0015,0.1377
23.98,-0.0015,0.1377
24,-0.0015,0.13785
24.02,-0.0015,0.13785
24.04,-0.0015,0.1377
24.06,-0.0015,0.1377
24.08,-0.0015,0.1377
24.1,-0.0015,0.13785
24.12,-0.0015,0.1377
24.14,-0.0015,0.13785
24.161,-0.003,0.13785
24.181,-0.0027,0.1377
24.201,-0.00285,0.1377
24.22,-0.00285,0.1377
24.24,-0.0015,0.13785
24.261,-0.00285,0.1377
24.281,-0.00285,0.138
24.301,-0.00285,0.138
24.321,-0.00285,0.138
24.34,-0.0015,0.13785
24.36,-0.00285,0.1377
24.38,-0.00285,0.13785
24.4,-0.0027,0.13785
24.42,-0.0015,0.1377
24.44,-0.0015,0.1377
24.46,-0.0015,0.13785
24.48,-0.0015,0.1377
24.5,-0.0015,0.13785
24.52,-0.0015,0.138
24.541,-0.00285,0.138
24.561,-0.00285,0.1377
24.581,-0.00285,0.1377
24.6,-0.00285,0.13785
24.62,-0.0015,0.13785
24.64,-0.0015,0.13785
24.66,-0.0015,0.13785
24.68,-0.0015,0.13785
24.7,-0.0015,0.1377
24.72,-0.0015,0.1374
24.741,-0.0027,0.1377
24.761,-0.0027,0.13785
24.78,-0.0015,0.13815
24.801,-0.00285,0.13785
24.821,-0.00285,0.1377
24.841,-0.0027,0.13785
24.86,-0.00285,0.13785
24.88,-0.0015,0.138
24.901,-0.0027,0.138
24.921,-0.00285,0.138
24.94,-0.0027,0.13785
24.96,-0.0015,0.13755
24.98,-0.0015,0.13755
25,-0.0015,0.1377
25.02,-0.0015,0.13785
25.04,-0.0015,0.1377
25.061,-0.0027,0.138
25.081,-0.00285,0.13785
25.1,-0.00285,0.1377
25.12,-0.0027,0.1377
25.14,-0.00285,0.13785
25.16,-0.0027,0.1377
25.18,-0.0027,0.1377
25.2,-0.00285,0.13755
25.22,-0.00285,0.1377
25.24,-0.00285,0.1374
25.26,-0.00285,0.1374
25.28,-0.0027,0.1374
25.3,-0.00285,0.1374
25.319,-0.0015,0.13755
25.34,-0.0027,0.1377
25.36,-0.00285,0.13755
25.38,-0.0027,0.1374
25.4,-0.0027,0.13755
25.42,-0.0015,0.13755
25.44,-0.0027,0.13755
25.46,-0.0015,0.1377
25.48,-0.0015,0.1377
25.5,-0.0015,0.1377
25.52,-0.0015,0.1377
25.54,-0.0015,0.13755
25.56,-0.0015,0.13755
25.58,-0.0015,0.1374
25.6,-0.0027,0.1374
25.62,-0.0027,0.1374
25.641,-0.00375,0.13755
25.66,-0.0027,0.13755
25.68,-0.0027,0.13755
25.7,-0.0027,0.1377
25.72,-0.00255,0.13755
25.74,-0.0015,0.13755
25.761,-0.00375,0.13755
25.78,-0.0015,0.13755
25.8,-0.0015,0.13755
25.821,-0.0027,0.13755
25.841,-0.0027,0.1377
25.861,-0.0027,0.13755
25.881,-0.00255,0.1377
25.9,-0.0027,0.1377
25.92,-0.0027,0.1377
25.94,-0.0015,0.1377
25.96,-0.00135,0.13785
25.98,-0.0015,0.13785
26,-0.0015,0.1377
26.02,-0.0015,0.13755
26.04,-0.00135,0.13755
26.06,-0.00135,0.13755
26.08,-0.00135,0.1377
26.101,-0.0027,0.1377
26.12,-0.00135,0.13755
26.14,-0.0015,0.13755
26.16,-0.0015,0.13755
26.18,-0.0015,0.13755
26.2,-0.00135,0.1377
26.221,-0.0027,0.1377
26.241,-0.0027,0.13755
26.261,-0.0027,0.1377
26.28,-0.00255,0.13785
26.3,-0.0027,0.138
26.32,-0.0027,0.138
26.34,-0.0027,0.1377
26.36,-0.00255,0.13755
26.38,-0.0015,0.13755
26.4,-0.00135,0.13755
26.42,-0.00135,0.1377
26.441,-0.0027,0.1377
26.46,-0.0015,0.1377
26.481,-0.00255,0.1377
26.501,-0.0027,0.1377
26.521,-0.00255,0.13785
26.54,-0.00255,0.13785
26.56,-0.0015,0.13785
26.58,-0.0015,0.138
26.6,-0.00135,0.138
26.62,-0.0015,0.13815
26.64,-0.0015,0.13815
26.659,-0.0012,0.13815
26.68,-0.0015,0.13815
26.7,-0.00135,0.1383
26.72,-0.00135,0.13845
26.739,-0.0015,0.13815
26.76,-0.00255,0.138
26.78,-0.0015,0.138
26.8,-0.0015,0.13785
26.82,-0.00135,0.138
26.84,-0.0015,0.13815
26.86,-0.0015,0.1383
26.88,-0.0015,0.13815
26.9,-0.0015,0.13815
26.919,-0.0015,0.13815
26.94,-0.00255,0.138
26.96,-0.00255,0.138
26.98,-0.0027,0.13815
27,-0.0027,0.138
27.02,-0.00255,0.138
27.04,-0.0027,0.138
27.06,-0.0015,0.138
27.08,-0.0015,0.13815
27.099,-0.0015,0.13815
27.12,-0.00255,0.1383
27.14,-0.00255,0.1386
27.16,-0.00135,0.13845
27.18,-0.0015,0.1383
27.2,-0.0015,0.1383
27.22,-0.0015,0.1383
27.24,-0.0015,0.13845
27.259,-0.0012,0.1383
27.28,-0.0015,0.1383
27.3,-0.0015,0.1383
27.321,-0.00255,0.13845
27.34,-0.0027,0.1383
27.359,-0.00135,0.13815
27.38,-0.0027,0.13815
27.4,-0.00255,0.13815
27.42,-0.0027,0.1383
27.44,-0.0027,0.1383
27.46,-0.0027,0.1383
27.48,-0.0015,0.13815
27.5,-0.0015,0.13815
27.52,-0.0015,0.13815
27.539,-0.00135,0.1383
27.56,-0.0027,0.13815
27.58,-0.0027,0.13815
27.6,-0.0027,0.13815
27.62,-0.0015,0.13815
27.64,-0.0027,0.13815
27.66,-0.0015,0.13815
27.68,-0.0015,0.13815
27.7,-0.0015,0.13785
27.72,-0.0015,0.1377
27.741,-0.00255,0.1377
27.761,-0.00255,0.13755
27.781,-0.0027,0.13785
27.8,-0.0027,0.138
27.82,-0.0015,0.1377
27.84,-0.0015,0.1377
27.86,-0.0015,0.13755
27.88,-0.0015,0.1377
27.899,-0.00105,0.1377
27.92,-0.0015,0.13785
27.94,-0.0015,0.138
27.961,-0.0027,0.138
27.981,-0.0027,0.138
28,-0.0027,0.138
28.02,-0.0027,0.138
28.04,-0.0027,0.138
28.06,-0.0015,0.138
28.08,-0.0015,0.13785
28.1,-0.0027,0.1377
28.12,-0.0027,0.1377
28.14,-0.0027,0.13785
28.16,-0.0027,0.13785
28.18,-0.0027,0.13815
28.2,-0.0027,0.13815
28.221,-0.00375,0.13815
28.24,-0.0027,0.138
28.259,-0.0015,0.138
28.28,-0.00285,0.138
28.3,-0.0027,0.138
28.32,-0.00285,0.1383
28.34,-0.0027,0.1383
28.36,-0.0015,0.13815
28.38,-0.0015,0.1383
28.4,-0.0015,0.138
28.42,-0.0015,0.138
28.44,-0.00285,0.138
28.459,-0.00165,0.13785
28.48,-0.00285,0.1377
28.5,-0.0027,0.1377
28.52,-0.0015,0.13785
28.541,-0.0027,0.13785
28.56,-0.0027,0.13785
28.581,-0.00285,0.138
28.601,-0.0027,0.13785
28.621,-0.0027,0.138
28.641,-0.00285,0.13815
28.661,-0.0027,0.13815
28.68,-0.0015,0.138
28.7,-0.0015,0.1383
28.72,-0.0015,0.1383
28.74,-0.0015,0.13845
28.76,-0.0015,0.1383
28.78,-0.00285,0.1383
28.8,-0.0027,0.1383
28.82,-0.00285,0.13815
28.84,-0.00285,0.13815
28.859,-0.0015,0.13785
28.88,-0.00285,0.13785
28.901,-0.00285,0.1383
28.92,-0.00285,0.1383
28.94,-0.00285,0.13845
28.96,-0.0015,0.13845
28.98,-0.0015,0.13815
29,-0.0015,0.13815
29.02,-0.0015,0.138
29.039,-0.0012,0.138
29.06,-0.0015,0.13785
29.08,-0.0015,0.138
29.1,-0.0015,0.138
29.12,-0.0015,0.138
29.14,-0.0015,0.1377
29.16,-0.0015,0.13755
29.18,-0.0015,0.13755
29.2,-0.0015,0.1377
29.219,-0.0015,0.1377
29.24,-0.0015,0.13755
29.26,-0.00165,0.13785
29.28,-0.0015,0.13785
29.3,-0.00165,0.1377
29.32,-0.0015,0.1374
29.341,-0.00285,0.13725
29.361,-0.00285,0.13725
29.381,-0.003,0.13725
29.4,-0.0015,0.1374
29.42,-0.00285,0.13725
29.44,-0.00165,0.1374
29.46,-0.00165,0.1374
29.48,-0.0015,0.1374
29.5,-0.0015,0.13725
29.521,-0.003,0.1371
29.541,-0.00285,0.1374
29.56,-0.00285,0.1377
29.58,-0.003,0.1374
29.6,-0.00285,0.1377
29.62,-0.00285,0.1377
29.64,-0.003,0.1377
29.66,-0.003,0.1377
29.68,-0.0015,0.13755
29.7,-0.0015,0.1377
29.72,-0.00165,0.13755
29.74,-0.0015,0.1377
29.759,-0.0012,0.1377
29.78,-0.0015,0.13785
29.8,-0.00165,0.13785
29.82,-0.0015,0.1377
29.84,-0.00165,0.13785
29.86,-0.00165,0.13755
29.88,-0.00165,0.1377
29.9,-0.00165,0.13755
29.92,-0.00165,0.13755
29.94,-0.00165,0.1377
29.96,-0.00165,0.1377
29.981,-0.003,0.13755
30,-0.00165,0.13755
30.021,-0.003,0.13755
30.041,-0.003,0.1377
30.061,-0.003,0.1377
30.081,-0.003,0.1377
30.1,-0.003,0.1377
30.12,-0.00165,0.1377
30.14,-0.003,0.13785
30.16,-0.003,0.1377
30.18,-0.003,0.1377
30.2,-0.003,0.13755
30.22,-0.00165,0.13755
30.24,-0.00165,0.1374
30.26,-0.00165,0.13755
30.28,-0.00165,0.13755
30.3,-0.00165,0.1374
30.321,-0.003,0.1374
30.34,-0.00315,0.1374
30.36,-0.003,0.1374
30.38,-0.00165,0.13755
30.4,-0.00165,0.13785
30.42,-0.0018,0.13785
30.44,-0.00165,0.13785
30.459,-0.0012,0.13785
30.48,-0.00165,0.1377
30.5,-0.00165,0.1377
30.52,-0.00165,0.13755
30.54,-0.003,0.13755
30.559,-0.0012,0.1377
30.58,-0.00165,0.1377
30.6,-0.0018,0.1377
30.62,-0.00165,0.1377
30.639,-0.00165,0.13755
30.661,-0.0039,0.13755
30.68,-0.003,0.1377
30.7,-0.00315,0.1377
30.72,-0.0033,0.1377
30.74,-0.0018,0.13785
30.76,-0.0018,0.13785
30.78,-0.0018,0.13785
30.8,-0.0018,0.138
30.819,-0.0012,0.138
30.84,-0.00165,0.138
30.86,-0.0018,0.138
30.88,-0.0018,0.13785
30.901,-0.00315,0.13785
30.92,-0.0033,0.138
30.94,-0.0033,0.138
30.96,-0.0018,0.138
30.98,-0.0018,0.138
30.999,-0.0018,0.13785
31.021,-0.00375,0.1377
31.04,-0.00315,0.13785
31.061,-0.0033,0.138
31.08,-0.0018,0.13785
31.1,-0.0018,0.13815
31.122,-0.0036,0.13845
31.14,-0.0018,0.1383
31.161,-0.0033,0.138
31.18,-0.0018,0.13815
31.201,-0.0033,0.138
31.221,-0.0033,0.1377
31.24,-0.0033,0.1377
31.26,-0.0033,0.1377
31.28,-0.00195,0.1377
31.301,-0.00345,0.1377
31.32,-0.0033,0.13755
31.34,-0.0033,0.1377
31.36,-0.00195,0.13755
31.381,-0.0033,0.1377
31.401,-0.0033,0.13785
31.42,-0.0033,0.13785
31.44,-0.0033,0.13785
31.461,-0.0033,0.1377
31.481,-0.00345,0.13755
31.5,-0.0033,0.13755
31.52,-0.0033,0.1377
31.54,-0.00345,0.138
31.56,-0.0033,0.1377
31.58,-0.00345,0.13755
31.6,-0.00345,0.13785
31.62,-0.00345,0.138
31.641,-0.00345,0.13815
31.66,-0.00345,0.1383
31.68,-0.00345,0.138
31.7,-0.0033,0.13815
31.72,-0.0033,0.13815
31.74,-0.00345,0.13815
31.76,-0.00195,0.138
31.78,-0.00195,0.138
31.8,-0.00195,0.13815
31.819,-0.00195,0.1383
31.84,-0.00345,0.138
31.86,-0.00345,0.138
31.88,-0.00345,0.13815
31.9,-0.00195,0.1383
31.92,-0.0021,0.1383
31.941,-0.00375,0.13815
31.961,-0.00345,0.138
31.98,-0.00195,0.13785
32.001,-0.0036,0.13785
32.021,-0.00345,0.13785
32.041,-0.00345,0.13785
32.061,-0.00345,0.13785
32.081,-0.0036,0.13785
32.1,-0.0036,0.13785
32.12,-0.00345,0.138
32.14,-0.0036,0.138
32.16,-0.0036,0.1377
32.18,-0.0021,0.1377
32.2,-0.0021,0.138
32.22,-0.00225,0.13785
32.24,-0.00225,0.13785
32.259,-0.00135,0.13785
32.28,-0.00225,0.13785
32.3,-0.00225,0.13785
32.321,-0.00345,0.13785
32.341,-0.0036,0.13785
32.361,-0.0036,0.1377
32.381,-0.00345,0.13755
32.4,-0.0036,0.13755
32.42,-0.00225,0.13755
32.44,-0.00225,0.1377
32.461,-0.0036,0.13785
32.481,-0.0036,0.1377
32.5,-0.00225,0.1377
32.521,-0.0036,0.1377
32.541,-0.00375,0.13785
32.56,-0.00345,0.1377
32.58,-0.0036,0.13755
32.6,-0.0024,0.13755
32.62,-0.0024,0.1377
32.64,-0.0024,0.13785
32.66,-0.0024,0.1377
32.68,-0.0024,0.13785
32.7,-0.0024,0.138
32.72,-0.0024,0.13785
32.74,-0.0024,0.13785
32.76,-0.0024,0.13785
32.779,-0.00135,0.13785
32.8,-0.0024,0.1377
32.82,-0.0024,0.1377
32.84,-0.0024,0.13785
32.86,-0.00255,0.13785
32.88,-0.0024,0.1377
32.9,-0.0036,0.1377
32.92,-0.0036,0.1377
32.94,-0.0036,0.13785
32.96,-0.0024,0.13785
32.98,-0.00255,0.1377
33,-0.00255,0.13785
33.02,-0.00255,0.1377
33.04,-0.00255,0.1377
33.06,-0.00255,0.138
33.081,-0.00375,0.13785
33.101,-0.00375,0.1377
33.121,-0.0036,0.13785
33.14,-0.00255,0.13785
33.16,-0.00255,0.13785
33.18,-0.00255,0.138
33.201,-0.0036,0.13815
33.22,-0.00375,0.138
33.24,-0.0036,0.138
33.26,-0.00375,0.138
33.28,-0.00375,0.138
33.3,-0.0036,0.13815
33.319,-0.0027,0.138
33.34,-0.00375,0.138
33.36,-0.0036,0.13815
33.38,-0.0027,0.13815
33.399,-0.0027,0.13815
33.42,-0.0036,0.13785
33.44,-0.00375,0.13785
33.46,-0.0027,0.138
33.48,-0.0027,0.138
33.5,-0.0027,0.138
33.52,-0.00285,0.13785
33.54,-0.00285,0.13785
33.56,-0.00285,0.13785
33.579,-0.00285,0.1377
33.6,-0.0036,0.13785
33.62,-0.0039,0.138
33.64,-0.00285,0.138
33.66,-0.003,0.1377
33.68,-0.003,0.13755
33.7,-0.00285,0.1377
33.72,-0.003,0.1377
33.74,-0.003,0.13785
33.76,-0.00285,0.13785
33.78,-0.003,0.13785
33.8,-0.003,0.138
33.821,-0.00375,0.138
33.84,-0.003,0.13815
33.86,-0.00375,0.13815
33.88,-0.00375,0.138
33.9,-0.00375,0.138
33.92,-0.00375,0.13785
33.94,-0.00375,0.138
33.96,-0.00375,0.138
33.98,-0.00315,0.138
34,-0.00315,0.138
34.02,-0.00315,0.13785
34.039,-0.00165,0.13785
34.06,-0.00315,0.138
34.08,-0.00315,0.138
34.1,-0.00315,0.13785
34.12,-0.00315,0.13785
34.14,-0.00315,0.138
34.16,-0.0033,0.13815
34.181,-0.00375,0.1383
34.2,-0.0033,0.1383
34.22,-0.00315,0.138
34.241,-0.0039,0.1377
34.261,-0.00375,0.138
34.281,-0.00375,0.138
34.301,-0.00375,0.138
34.32,-0.0033,0.13785
34.341,-0.00375,0.138
34.361,-0.00375,0.138
34.381,-0.00375,0.138
34.4,-0.0033,0.138
34.42,-0.0033,0.13785
34.44,-0.0033,0.13785
34.46,-0.0033,0.13785
34.481,-0.00375,0.13785
34.5,-0.00375,0.13785
34.52,-0.003,0.13785
34.54,-0.00375,0.13785
34.56,-0.00375,0.13785
34.58,-0.00345,0.1377
34.6,-0.0033,0.1377
34.62,-0.00345,0.13785
34.64,-0.00345,0.1377
34.661,-0.00375,0.13785
34.68,-0.00345,0.13785
34.701,-0.0036,0.138
34.721,-0.00375,0.13785
34.74,-0.0036,0.138
34.76,-0.00345,0.13785
34.781,-0.00375,0.13785
34.801,-0.00375,0.13785
34.821,-0.0036,0.13785
34.841,-0.00375,0.1377
34.86,-0.00375,0.13785
34.88,-0.0036,0.138
34.9,-0.0036,0.13785
34.92,-0.0036,0.138
34.94,-0.0036,0.13785
34.96,-0.0036,0.1377
34.981,-0.0036,0.1377
35.001,-0.0036,0.13785
35.02,-0.0036,0.1377
35.041,-0.0036,0.1377
35.06,-0.0036,0.1377
35.08,-0.0036,0.13755
35.1,-0.00375,0.13755
35.12,-0.0036,0.1377
35.14,-0.0036,0.1377
35.16,-0.0036,0.1377
35.18,-0.0036,0.138
35.2,-0.0036,0.13785
35.221,-0.0036,0.13785
35.241,-0.0036,0.1377
35.26,-0.0036,0.1377
35.28,-0.0036,0.1377
35.299,-0.0024,0.1377
35.32,-0.0036,0.1377
35.34,-0.00375,0.138
35.36,-0.0036,0.1377
35.381,-0.00345,0.138
35.401,-0.0036,0.138
35.421,-0.0036,0.1383
35.44,-0.00375,0.1383
35.461,-0.00345,0.13815
35.48,-0.0036,0.138
35.5,-0.0036,0.138
35.52,-0.0036,0.13815
35.541,-0.00345,0.13815
35.56,-0.0036,0.13815
35.58,-0.00375,0.13815
35.601,-0.00345,0.13815
35.621,-0.00345,0.13815
35.641,-0.00345,0.13815
35.66,-0.00345,0.138
35.68,-0.00345,0.138
35.7,-0.0036,0.13815
35.72,-0.00375,0.1383
35.739,-0.0036,0.13845
35.76,-0.0036,0.13845
35.78,-0.00345,0.1383
35.8,-0.00345,0.13845
35.82,-0.00345,0.13845
35.839,-0.0036,0.13815
35.86,-0.00345,0.1383
35.88,-0.00345,0.1383
35.9,-0.00345,0.1383
35.92,-0.0036,0.1383
35.94,-0.00375,0.1383
35.961,-0.00345,0.13845
35.98,-0.00345,0.1383
36,-0.00345,0.13785
36.02,-0.00345,0.13785
36.04,-0.00375,0.13785
36.06,-0.00375,0.138
36.08,-0.00375,0.13815
36.1,-0.0036,0.13815
36.12,-0.00375,0.1383
36.14,-0.00375,0.13815
36.16,-0.0036,0.138
36.181,-0.00345,0.13785
36.2,-0.00375,0.13785
36.22,-0.00375,0.13785
36.24,-0.00375,0.138
36.26,-0.00375,0.13815
36.28,-0.00375,0.1383
36.3,-0.00345,0.13815
36.32,-0.00345,0.1383
36.34,-0.00375,0.1383
36.36,-0.00375,0.1383
36.379,-0.00375,0.1383
36.4,-0.0033,0.13815
36.42,-0.00375,0.13815
36.44,-0.00375,0.13815
36.46,-0.00375,0.1383
36.48,-0.0039,0.13815
36.5,-0.0036,0.1383
36.52,-0.0039,0.1383
36.54,-0.00375,0.1383
36.559,-0.0033,0.13815
36.58,-0.00375,0.13815
36.601,-0.0033,0.138
36.621,-0.0033,0.13785
36.64,-0.0033,0.138
36.66,-0.0033,0.1383
36.68,-0.0033,0.13845
36.7,-0.0033,0.13845
36.72,-0.0033,0.1386
36.74,-0.0033,0.1383
36.761,-0.0033,0.1383
36.78,-0.00375,0.13815
36.8,-0.0036,0.13815
36.819,-0.00345,0.13815
36.84,-0.00375,0.13815
36.86,-0.0036,0.1383
36.88,-0.0036,0.13815
36.899,-0.0036,0.13815
36.92,-0.0033,0.13815
36.939,-0.0036,0.138
36.961,-0.00315,0.138
36.98,-0.00375,0.13815
37,-0.0036,0.13815
37.02,-0.0036,0.138
37.04,-0.0036,0.138
37.06,-0.00375,0.13815
37.08,-0.0036,0.13815
37.1,-0.00375,0.13785
37.121,-0.0033,0.13785
37.141,-0.00315,0.13785
37.161,-0.0033,0.1377
37.18,-0.0033,0.138
37.2,-0.0033,0.13815
37.22,-0.0033,0.13785
37.24,-0.0033,0.138
37.26,-0.0036,0.138
37.28,-0.0036,0.138
37.3,-0.0036,0.138
37.319,-0.0036,0.138
37.34,-0.0033,0.138
37.361,-0.0033,0.13815
37.381,-0.0033,0.1383
37.4,-0.0033,0.1383
37.42,-0.0033,0.1383
37.44,-0.00345,0.1383
37.46,-0.00345,0.13845
37.48,-0.00345,0.13875
37.5,-0.00345,0.1389
37.52,-0.00345,0.13875
37.54,-0.00345,0.13905
37.561,-0.0033,0.1392
37.581,-0.0027,0.1389
37.601,-0.0033,0.13875
37.62,-0.0033,0.13875
37.64,-0.0033,0.13875
37.66,-0.0033,0.13845
37.68,-0.0033,0.1386
37.7,-0.0033,0.1386
37.72,-0.0033,0.13845
37.74,-0.00315,0.1386
37.76,-0.0033,0.13845
37.78,-0.00315,0.1383
37.799,-0.00345,0.13815
37.82,-0.0033,0.13845
37.84,-0.00315,0.1383
37.86,-0.00345,0.1383
37.88,-0.00345,0.13815
37.899,-0.00375,0.1383
37.92,-0.00345,0.13815
37.941,-0.00315,0.13815
37.96,-0.00345,0.138
37.98,-0.00345,0.138
38.001,-0.00315,0.138
38.021,-0.00315,0.138
38.04,-0.003,0.13815
38.06,-0.00315,0.1383
38.08,-0.00345,0.138
38.1,-0.00345,0.13815
38.12,-0.00345,0.13815
38.14,-0.00345,0.13815
38.159,-0.00375,0.13815
38.181,-0.003,0.138
38.2,-0.00345,0.13785
38.22,-0.00345,0.13815
38.24,-0.00345,0.138
38.259,-0.00345,0.13785
38.28,-0.003,0.138
38.3,-0.003,0.138
38.32,-0.003,0.138
38.34,-0.00345,0.13815
38.36,-0.0033,0.13815
38.38,-0.00345,0.13815
38.4,-0.00345,0.138
38.42,-0.0033,0.138
38.439,-0.00375,0.13785
38.46,-0.00345,0.138
38.48,-0.0033,0.13785
38.5,-0.00345,0.13785
38.519,-0.0033,0.13785
38.54,-0.0033,0.138
38.56,-0.0033,0.13815
38.58,-0.00345,0.13785
38.6,-0.00345,0.13785
38.62,-0.0033,0.13785
38.64,-0.00345,0.138
38.66,-0.0033,0.138
38.68,-0.0033,0.13815
38.7,-0.0033,0.1383
38.719,-0.0036,0.13815
38.74,-0.0033,0.13815
38.76,-0.0033,0.138
38.78,-0.0033,0.138
38.8,-0.0033,0.138
38.821,-0.003,0.13815
38.84,-0.003,0.13815
38.86,-0.003,0.13815
38.88,-0.003,0.13815
38.9,-0.00285,0.13815
38.92,-0.003,0.13815
38.94,-0.003,0.13815
38.96,-0.0033,0.1383
38.98,-0.0033,0.13815
39,-0.003,0.13815
39.02,-0.003,0.1383
39.04,-0.003,0.138
39.06,-0.003,0.138
39.08,-0.0033,0.138
39.101,-0.003,0.13785
39.121,-0.00285,0.1377
39.14,-0.003,0.138
39.16,-0.00285,0.1377
39.18,-0.003,0.138
39.2,-0.00285,0.13785
39.22,-0.00285,0.13785
39.239,-0.0033,0.1377
39.26,-0.00285,0.1377
39.28,-0.00285,0.138
39.3,-0.00285,0.13815
39.32,-0.0033,0.1383
39.34,-0.0033,0.1383
39.361,-0.00285,0.13815
39.381,-0.00285,0.13785
39.4,-0.0033,0.138
39.42,-0.0033,0.138
39.44,-0.0033,0.13785
39.461,-0.00285,0.138
39.481,-0.00285,0.138
39.5,-0.00285,0.138
39.52,-0.0027,0.13785
39.54,-0.00285,0.1377
39.56,-0.00285,0.13785
39.58,-0.00285,0.138
39.6,-0.00285,0.138
39.62,-0.00285,0.13785
39.64,-0.00285,0.13815
39.66,-0.00315,0.138
39.68,-0.00315,0.13815
39.699,-0.00315,0.13815
39.72,-0.00285,0.13815
39.74,-0.0027,0.1377
39.76,-0.00285,0.13785
39.78,-0.00315,0.138
39.8,-0.00315,0.13815
39.82,-0.00315,0.138
39.84,-0.00315,0.13785
39.86,-0.00315,0.138
39.879,-0.00345,0.138
39.9,-0.00315,0.13785
39.92,-0.003,0.1377
39.94,-0.003,0.13785
39.96,-0.003,0.13785
39.98,-0.0027,0.13785
40,-0.00285,0.13785
40.02,-0.00285,0.13785
40.04,-0.00285,0.13785
40.06,-0.003,0.1377
40.081,-0.0027,0.1377
40.101,-0.00285,0.1377
40.121,-0.0027,0.13815
40.14,-0.003,0.13815
40.16,-0.00285,0.13815
40.18,-0.003,0.13815
40.2,-0.00285,0.138
40.22,-0.003,0.13815
40.239,-0.00345,0.1383
40.26,-0.00285,0.138
40.28,-0.003,0.138
40.301,-0.00285,0.13785
40.319,-0.00345,0.13785
40.34,-0.0027,0.138
40.36,-0.0027,0.138
40.38,-0.00285,0.138
40.4,-0.0027,0.13785
40.42,-0.00285,0.138
40.441,-0.0027,0.13815
40.46,-0.0027,0.13815
40.48,-0.0027,0.13815
40.5,-0.0027,0.13785
40.52,-0.0027,0.13785
40.54,-0.0027,0.13815
40.56,-0.00285,0.13815
40.58,-0.00285,0.13815
40.599,-0.003,0.13815
40.62,-0.003,0.13785
40.641,-0.00285,0.138
40.66,-0.003,0.138
40.68,-0.003,0.13785
40.7,-0.0027,0.13815
40.72,-0.00285,0.13815
40.74,-0.003,0.13815
40.76,-0.003,0.13815
40.779,-0.003,0.138
40.8,-0.0027,0.138
40.82,-0.00285,0.138
40.84,-0.003,0.138
40.859,-0.003,0.138
40.88,-0.003,0.13815
40.9,-0.003,0.13815
40.92,-0.00285,0.138
40.94,-0.00285,0.1377
40.96,-0.003,0.13785
40.98,-0.00285,0.13815
41,-0.00285,0.13815
41.02,-0.00285,0.138
41.04,-0.00285,0.13785
41.06,-0.00285,0.13785
41.08,-0.00285,0.138
41.101,-0.0027,0.13785
41.121,-0.0027,0.13785
41.14,-0.00285,0.13785
41.16,-0.0027,0.13785
41.18,-0.0027,0.13785
41.2,-0.0027,0.13785
41.22,-0.00285,0.1377
41.24,-0.00285,0.13785
41.26,-0.00285,0.13785
41.28,-0.00285,0.138
41.299,-0.0033,0.13785
41.32,-0.00285,0.1377
41.34,-0.00285,0.1377
41.36,-0.00285,0.13785
41.381,-0.0027,0.138
41.4,-0.00285,0.13785
41.42,-0.00285,0.13785
41.44,-0.00285,0.13785
41.461,-0.0027,0.138
41.481,-0.00285,0.13785
41.5,-0.00285,0.1377
41.52,-0.00285,0.13755
41.54,-0.00285,0.1377
41.56,-0.00285,0.1377
41.58,-0.00285,0.1377
41.6,-0.00285,0.13755
41.621,-0.0027,0.13755
41.641,-0.0027,0.1377
41.661,-0.0027,0.138
41.68,-0.0027,0.13815
41.702,-0.0024,0.13815
41.72,-0.0027,0.138
41.74,-0.0027,0.138
41.76,-0.0027,0.138
41.78,-0.0027,0.138
41.8,-0.0027,0.13815
41.82,-0.0027,0.138
41.839,-0.00285,0.138
41.86,-0.0027,0.13785
41.88,-0.00285,0.13785
41.9,-0.00285,0.13785
41.92,-0.00285,0.13785
41.939,-0.0027,0.1377
41.96,-0.0027,0.1377
41.98,-0.0027,0.1377
42,-0.00255,0.1377
42.02,-0.0027,0.1377
42.04,-0.00255,0.13785
42.06,-0.0027,0.13785
42.08,-0.0027,0.1377
42.1,-0.0027,0.13785
42.12,-0.0027,0.1377
42.141,-0.00255,0.13755
42.16,-0.00255,0.13755
42.18,-0.00255,0.13755
42.2,-0.00255,0.1377
42.219,-0.0027,0.13785
42.24,-0.00255,0.13785
42.26,-0.00255,0.13785
42.28,-0.00255,0.13785
42.3,-0.00255,0.138
42.32,-0.00285,0.13785
42.34,-0.0027,0.13785
42.36,-0.00285,0.13785
42.38,-0.00255,0.1377
42.399,-0.00285,0.1377
42.42,-0.00255,0.13755
42.44,-0.00255,0.13755
42.46,-0.0027,0.13755
42.48,-0.00285,0.13725
42.5,-0.0027,0.13755
42.52,-0.0027,0.13785
42.54,-0.00285,0.138
42.56,-0.0027,0.13785
42.579,-0.003,0.138
42.6,-0.0027,0.13815
42.62,-0.00285,0.138
42.64,-0.00285,0.138
42.659,-0.003,0.13785
42.68,-0.0027,0.13815
42.7,-0.00285,0.1383
42.72,-0.0027,0.1383
42.74,-0.00285,0.13845
42.76,-0.00255,0.13845
42.78,-0.00255,0.1383
42.8,-0.00285,0.138
42.82,-0.00255,0.138
42.84,-0.0027,0.1383
42.86,-0.00285,0.13815
42.88,-0.0027,0.138
42.9,-0.00285,0.138
42.921,-0.0024,0.13815
42.941,-0.0024,0.13815
42.96,-0.0024,0.13815
42.98,-0.0027,0.138
43,-0.00285,0.138
43.02,-0.0027,0.138
43.04,-0.0024,0.13785
43.06,-0.0024,0.13785
43.08,-0.0024,0.13785
43.1,-0.0024,0.138
43.12,-0.0027,0.13815
43.141,-0.0024,0.13815
43.161,-0.0024,0.13815
43.181,-0.0024,0.1383
43.2,-0.0024,0.13815
43.22,-0.0027,0.13815
43.24,-0.0027,0.13815
43.261,-0.0024,0.138
43.28,-0.0027,0.13785
43.3,-0.0027,0.138
43.321,-0.0024,0.13785
43.341,-0.0024,0.1377
43.361,-0.0024,0.1377
43.38,-0.0024,0.13785
43.399,-0.0027,0.13785
43.42,-0.00225,0.1377
43.44,-0.0024,0.1377
43.46,-0.0024,0.13785
43.48,-0.0024,0.13785
43.5,-0.0024,0.13785
43.52,-0.0024,0.13755
43.54,-0.0024,0.13755
43.56,-0.0027,0.13755
43.58,-0.0027,0.13755
43.6,-0.0027,0.1377
43.62,-0.0027,0.13755
43.64,-0.0027,0.13785
43.659,-0.00285,0.1377
43.68,-0.0027,0.1377
43.7,-0.0027,0.1377
43.72,-0.00255,0.1377
43.74,-0.0027,0.13755
43.76,-0.00255,0.1377
43.78,-0.0027,0.1377
43.801,-0.0024,0.1374
43.821,-0.0024,0.1374
43.84,-0.0024,0.1374
43.86,-0.00225,0.1374
43.88,-0.0024,0.1374
43.9,-0.0024,0.1377
43.92,-0.00255,0.13755
43.939,-0.0027,0.1374
43.96,-0.0024,0.1374
43.98,-0.0024,0.13755
44,-0.0024,0.13755
44.02,-0.00255,0.1374
44.041,-0.00225,0.13725
44.06,-0.0024,0.1374
44.08,-0.00225,0.13785
44.1,-0.00225,0.13785
44.12,-0.00255,0.1377
44.141,-0.00225,0.13785
44.161,-0.0024,0.13785
44.181,-0.00225,0.1377
44.2,-0.00225,0.13755
44.22,-0.00225,0.13785
44.24,-0.00225,0.13815
44.26,-0.00225,0.138
44.28,-0.00225,0.13815
44.3,-0.00255,0.13815
44.32,-0.00255,0.1383
44.341,-0.00225,0.1383
44.361,-0.00225,0.1383
44.38,-0.00255,0.138
44.4,-0.00225,0.138
44.42,-0.00225,0.13785
44.44,-0.00225,0.13785
44.46,-0.00225,0.138
44.48,-0.00255,0.138
44.5,-0.00255,0.138
44.521,-0.0021,0.138
44.541,-0.00225,0.13815
44.56,-0.00255,0.13815
44.58,-0.0021,0.13785
44.6,-0.00255,0.13785
44.62,-0.00255,0.13785
44.64,-0.00255,0.13785
44.66,-0.00255,0.13785
44.68,-0.00255,0.13755
44.701,-0.0021,0.13785
44.721,-0.00225,0.13785
44.74,-0.00255,0.13785
44.76,-0.0024,0.13785
44.781,-0.0021,0.13785
44.801,-0.0021,0.1377
44.82,-0.0021,0.1377
44.84,-0.0024,0.13785
44.86,-0.0024,0.13785
44.88,-0.0024,0.138
44.9,-0.0024,0.138
44.92,-0.0024,0.1377
44.94,-0.0024,0.138
44.96,-0.0024,0.13785
44.981,-0.00225,0.1377
45.001,-0.00225,0.13755
45.021,-0.00225,0.1377
45.04,-0.0021,0.13755
45.06,-0.00225,0.1377
45.08,-0.0021,0.13755
45.1,-0.0021,0.13785
45.12,-0.00225,0.1377
45.14,-0.0024,0.1377
45.16,-0.0024,0.13785
45.18,-0.0024,0.1377
45.2,-0.0024,0.13785
45.22,-0.0024,0.138
45.24,-0.00225,0.138
45.261,-0.0021,0.138
45.28,-0.0024,0.13815
45.3,-0.0024,0.138
45.321,-0.0021,0.138
45.341,-0.0021,0.1377
45.361,-0.0021,0.1377
45.38,-0.0024,0.1377
45.401,-0.0021,0.1377
45.42,-0.0021,0.13785
45.44,-0.0021,0.1377
45.46,-0.0021,0.1377
45.48,-0.0024,0.13755
45.501,-0.0021,0.13755
45.52,-0.0021,0.13755
45.54,-0.0021,0.1377
45.559,-0.00225,0.13755
45.58,-0.0021,0.13755
45.6,-0.0021,0.13755
45.62,-0.0021,0.1377
45.64,-0.0021,0.13785
45.659,-0.00225,0.1377
45.68,-0.0021,0.13785
45.7,-0.0021,0.13815
45.72,-0.0021,0.13815
45.739,-0.00225,0.13785
45.76,-0.0021,0.1377
45.78,-0.0021,0.13785
45.8,-0.00195,0.138
45.82,-0.0021,0.138
45.84,-0.0021,0.13785
45.86,-0.0021,0.13785
45.88,-0.0024,0.13785
45.9,-0.0024,0.13785
45.919,-0.0024,0.13785
45.94,-0.0021,0.138
45.96,-0.0021,0.13815
45.98,-0.0021,0.138
46,-0.0021,0.138
46.02,-0.0024,0.138
46.04,-0.0024,0.13785
46.061,-0.0021,0.138
46.081,-0.00195,0.13785
46.1,-0.0024,0.138
46.121,-0.0021,0.138
46.141,-0.0021,0.138
46.161,-0.0021,0.13785
46.18,-0.00195,0.13785
46.199,-0.0024,0.138
46.22,-0.0021,0.138
46.24,-0.00195,0.13785
46.26,-0.00195,0.13785
46.279,-0.00225,0.13785
46.3,-0.0021,0.13785
46.32,-0.00195,0.138
46.34,-0.00195,0.138
46.36,-0.00225,0.13815
46.379,-0.00225,0.13815
46.4,-0.00195,0.138
46.42,-0.00195,0.13815
46.44,-0.00225,0.1383
46.459,-0.00225,0.1383
46.48,-0.00225,0.1383
46.5,-0.00225,0.1383
46.52,-0.00225,0.138
46.54,-0.00225,0.138
46.559,-0.00255,0.13785
46.58,-0.00225,0.13785
46.6,-0.00225,0.1377
46.62,-0.00225,0.138
46.639,-0.00255,0.13815
46.66,-0.00225,0.13815
46.68,-0.00225,0.1383
46.7,-0.00225,0.13815
46.72,-0.0021,0.138
46.739,-0.00255,0.138
46.76,-0.0021,0.138
46.78,-0.0021,0.13785
46.8,-0.0021,0.13785
46.82,-0.00225,0.138
46.84,-0.00225,0.138
46.86,-0.0021,0.138
46.88,-0.00225,0.138
46.901,-0.0018,0.138
46.919,-0.0024,0.138
46.939,-0.00255,0.13815
46.96,-0.00225,0.13845
46.98,-0.0021,0.1383
47,-0.0021,0.1383
47.02,-0.0021,0.1383
47.04,-0.0021,0.13845
47.061,-0.00195,0.13815
47.081,-0.00195,0.138
47.1,-0.0021,0.1377
47.12,-0.0021,0.1377
47.14,-0.0021,0.1377
47.16,-0.0021,0.1377
47.18,-0.0021,0.138
47.2,-0.00195,0.138
47.22,-0.00195,0.138
47.24,-0.0018,0.1377
47.26,-0.00195,0.1377
47.279,-0.0021,0.13785
47.3,-0.0018,0.13785
47.32,-0.0018,0.1377
47.34,-0.00195,0.138
47.36,-0.0021,0.13785
47.38,-0.00195,0.13785
47.4,-0.0018,0.13785
47.42,-0.00195,0.138
47.44,-0.0018,0.138
47.46,-0.00195,0.13785
47.48,-0.0018,0.13755
47.5,-0.00195,0.13725
47.52,-0.00195,0.1374
47.54,-0.0021,0.1374
47.561,-0.00195,0.13755
47.58,-0.0018,0.1377
47.6,-0.0018,0.1377
47.62,-0.0018,0.13785
47.64,-0.00195,0.138
47.66,-0.00195,0.138
47.68,-0.00195,0.138
47.7,-0.00195,0.13815
47.719,-0.0021,0.13815
47.74,-0.0018,0.13815
47.76,-0.0018,0.138
47.78,-0.0018,0.13785
47.8,-0.0021,0.13785
47.821,-0.0018,0.1377
47.84,-0.0018,0.1377
47.86,-0.0018,0.13785
47.88,-0.0018,0.138
47.899,-0.0021,0.138
47.92,-0.0018,0.138
47.94,-0.0018,0.138
47.96,-0.0018,0.138
47.98,-0.0018,0.13815
47.999,-0.0021,0.13815
48.02,-0.00195,0.138
48.04,-0.0021,0.138
48.06,-0.0021,0.138
48.08,-0.0021,0.138
48.1,-0.0018,0.13785
48.12,-0.0018,0.138
48.14,-0.0021,0.138
48.16,-0.00195,0.13815
48.18,-0.00195,0.13815
48.2,-0.0021,0.1383
48.22,-0.00195,0.1383
48.24,-0.00195,0.1383
48.26,-0.0021,0.1383
48.28,-0.0021,0.1383
48.3,-0.0021,0.138
48.32,-0.0021,0.138
48.34,-0.00195,0.13815
48.36,-0.0018,0.138
48.38,-0.0018,0.13815
48.4,-0.0018,0.1383
48.421,-0.0018,0.13815
48.44,-0.00165,0.138
48.46,-0.00195,0.13785
48.48,-0.00195,0.1377
48.5,-0.00195,0.1377
48.52,-0.00195,0.13755
48.539,-0.00225,0.1374
48.561,-0.00165,0.13755
48.58,-0.00195,0.1377
48.601,-0.00165,0.138
48.62,-0.00195,0.138
48.641,-0.00165,0.13785
48.66,-0.00195,0.13785
48.68,-0.00195,0.138
48.701,-0.00165,0.138
48.72,-0.00195,0.13785
48.741,-0.00165,0.13785
48.761,-0.00165,0.138
48.78,-0.00165,0.13815
48.8,-0.00165,0.1383
48.82,-0.00195,0.1383
48.84,-0.00195,0.13815
48.86,-0.00195,0.13815
48.881,-0.00165,0.138
48.901,-0.00165,0.13785
48.921,-0.00165,0.138
48.94,-0.0015,0.13815
48.96,-0.00165,0.138
48.98,-0.00165,0.13785
49,-0.00165,0.13785
49.02,-0.00195,0.13815
49.041,-0.00165,0.13815
49.06,-0.00195,0.138
49.081,-0.00165,0.13785
49.101,-0.00165,0.13785
49.12,-0.00195,0.138
49.141,-0.00165,0.13785
49.161,-0.00165,0.13785
49.18,-0.0015,0.13785
49.2,-0.00165,0.138
49.22,-0.00165,0.1383
49.24,-0.00165,0.1383
49.26,-0.0015,0.13815
49.28,-0.00165,0.13815
49.299,-0.00195,0.138
49.32,-0.0015,0.13815
49.34,-0.00165,0.13815
49.361,-0.00165,0.138
49.381,-0.0015,0.13815
49.4,-0.00165,0.13785
49.42,-0.00165,0.13785
49.44,-0.00165,0.138
49.46,-0.00165,0.1383
49.479,-0.00195,0.13815
49.5,-0.0015,0.13815
49.521,-0.00165,0.138
49.54,-0.00165,0.138
49.56,-0.0018,0.1383
49.58,-0.0018,0.13845
49.6,-0.0018,0.13845
49.62,-0.00195,0.1386
49.64,-0.0018,0.138
49.66,-0.00195,0.138
49.68,-0.00195,0.138
49.7,-0.0018,0.138
49.72,-0.00195,0.138
49.74,-0.0018,0.13815
49.761,-0.00135,0.138
49.78,-0.0015,0.13785
49.8,-0.0015,0.13785
49.82,-0.0015,0.1377
49.84,-0.00165,0.1377
49.861,-0.0015,0.1377
49.88,-0.0015,0.1377
49.9,-0.0015,0.13785
49.92,-0.0015,0.13785
49.94,-0.00195,0.13785
49.96,-0.00195,0.1377
49.98,-0.0018,0.13785
50,-0.0018,0.138
50.02,-0.00195,0.138
50.04,-0.0018,0.13815
50.06,-0.0015,0.13815
50.08,-0.0015,0.1383
50.1,-0.0018,0.1383
50.12,-0.00195,0.13815
50.139,-0.0018,0.138
50.16,-0.0015,0.138
50.18,-0.0015,0.13785
50.2,-0.0015,0.13785
50.219,-0.0018,0.13785
50.24,-0.0015,0.1377
50.26,-0.0015,0.1377
50.28,-0.0015,0.13785
50.3,-0.0018,0.138
50.319,-0.00195,0.138
50.34,-0.0015,0.138
50.361,-0.0015,0.138
50.38,-0.0018,0.13785
50.4,-0.00195,0.138
50.42,-0.0018,0.138
50.44,-0.0018,0.138
50.46,-0.0018,0.13815
50.48,-0.0018,0.138
50.501,-0.0015,0.138
50.521,-0.0015,0.138
50.541,-0.0015,0.138
50.56,-0.0018,0.1383
50.581,-0.0015,0.13845
50.602,-0.0009,0.1383
50.62,-0.0015,0.1383
50.64,-0.0015,0.1383
50.66,-0.0015,0.13815
50.68,-0.0015,0.13815
50.7,-0.0015,0.13815
50.72,-0.00165,0.13815
50.74,-0.0018,0.138
50.76,-0.0018,0.138
50.78,-0.0018,0.138
50.8,-0.0018,0.138
50.82,-0.0018,0.138
50.84,-0.0018,0.138
50.86,-0.00165,0.138
50.88,-0.00165,0.1377
50.9,-0.0018,0.1377
50.92,-0.0018,0.138
50.94,-0.00165,0.138
50.96,-0.00165,0.138
50.98,-0.0018,0.13785
51,-0.00165,0.138
51.02,-0.00165,0.13785
51.04,-0.0015,0.1377
51.06,-0.0015,0.1377
51.08,-0.00135,0.13785
51.099,-0.00165,0.13755
51.12,-0.0015,0.13755
51.14,-0.00165,0.1377
51.16,-0.00165,0.13755
51.18,-0.00165,0.13785
51.201,-0.0015,0.13815
51.22,-0.00105,0.138
51.24,-0.00165,0.1377
51.261,-0.00135,0.13785
51.281,-0.00135,0.13785
51.301,-0.00135,0.13785
51.32,-0.00165,0.138
51.34,-0.00165,0.138
51.36,-0.00165,0.13785
51.38,-0.00165,0.13785
51.401,-0.00135,0.13785
51.421,-0.00135,0.13785
51.44,-0.00135,0.13815
51.46,-0.00135,0.13815
51.48,-0.00135,0.1377
51.499,-0.00165,0.13785
51.52,-0.00135,0.138
51.54,-0.00135,0.13785
51.56,-0.00135,0.138
51.58,-0.00135,0.13785
51.6,-0.00165,0.1377
51.62,-0.0015,0.1377
51.64,-0.00165,0.1377
51.66,-0.00165,0.13785
51.68,-0.00165,0.13785
51.699,-0.00195,0.13785
51.72,-0.00165,0.1377
51.74,-0.00165,0.1377
51.76,-0.00165,0.13785
51.779,-0.00195,0.138
51.8,-0.00165,0.138
51.82,-0.00165,0.138
51.841,-0.00135,0.138
51.861,-0.00135,0.13785
51.881,-0.00135,0.13785
51.9,-0.00135,0.138
51.92,-0.00135,0.138
51.94,-0.00135,0.13815
51.961,-0.00135,0.13815
51.981,-0.00135,0.138
52,-0.00135,0.13785
52.02,-0.00135,0.1377
52.04,-0.00135,0.138
52.06,-0.00135,0.13785
52.08,-0.00135,0.138
52.1,-0.00135,0.138
52.12,-0.00135,0.138
52.14,-0.00165,0.13785
52.16,-0.0015,0.13785
52.18,-0.00165,0.13785
52.2,-0.0015,0.13785
52.22,-0.00165,0.13815
52.241,-0.00135,0.13815
52.26,-0.00165,0.138
52.281,-0.00135,0.1377
52.3,-0.00135,0.1377
52.32,-0.00135,0.1377
52.34,-0.0015,0.1377
52.36,-0.0015,0.13755
52.38,-0.0015,0.1377
52.4,-0.00165,0.13785
52.42,-0.00105,0.13785
52.44,-0.00135,0.13785
52.46,-0.00135,0.13785
52.48,-0.00135,0.13785
52.5,-0.00135,0.13785
52.519,-0.0015,0.13785
52.542,-0.0009,0.138
52.56,-0.00135,0.13785
52.58,-0.00135,0.13785
52.6,-0.00135,0.13785
52.62,-0.0015,0.138
52.64,-0.00165,0.138
52.66,-0.0015,0.1377
52.681,-0.00135,0.13755
52.7,-0.0015,0.1377
52.72,-0.0015,0.13785
52.741,-0.00135,0.13785
52.761,-0.0012,0.13755
52.781,-0.00135,0.1377
52.8,-0.00135,0.1377
52.82,-0.00135,0.1377
52.84,-0.00135,0.13785
52.86,-0.0012,0.13785
52.88,-0.0015,0.13785
52.9,-0.0015,0.13815
52.92,-0.0015,0.13815
52.94,-0.0015,0.13815
52.961,-0.0012,0.1383
52.981,-0.0012,0.13815
53.001,-0.0012,0.13815
53.02,-0.0015,0.13815
53.04,-0.0015,0.13815
53.06,-0.0015,0.13815
53.081,-0.0012,0.13815
53.1,-0.0015,0.13815
53.12,-0.0015,0.138
53.141,-0.0012,0.138
53.161,-0.0012,0.13785
53.181,-0.0012,0.13785
53.2,-0.0012,0.13785
53.22,-0.0012,0.138
53.24,-0.0012,0.138
53.26,-0.0012,0.13785
53.28,-0.0012,0.13785
53.3,-0.0012,0.13815
53.32,-0.0015,0.13815
53.34,-0.0015,0.138
53.361,-0.0012,0.13815
53.381,-0.00105,0.138
53.401,-0.0012,0.138
53.42,-0.0012,0.13815
53.44,-0.0012,0.138
53.46,-0.0012,0.13815
53.48,-0.0012,0.1383
53.5,-0.0012,0.13845
53.521,-0.0009,0.13845
53.54,-0.0015,0.1383
53.56,-0.0015,0.13815
53.58,-0.0015,0.13815
53.6,-0.0015,0.138
53.62,-0.0015,0.138
53.64,-0.0015,0.1383
53.66,-0.0015,0.1383
53.68,-0.0015,0.13815
53.7,-0.0015,0.1383
53.72,-0.0015,0.1383
53.74,-0.0015,0.1383
53.76,-0.0015,0.13815
53.78,-0.0015,0.138
53.801,-0.0012,0.138
53.82,-0.00135,0.13815
53.841,-0.00105,0.13815
53.865,-0.0006,0.1383
53.88,-0.0012,0.1383
53.9,-0.0012,0.13815
53.92,-0.0015,0.13815
53.94,-0.00135,0.138
53.96,-0.00105,0.13815
53.98,-0.00105,0.13815
54,-0.00135,0.138
54.021,-0.00105,0.138
54.04,-0.0012,0.138
54.06,-0.0012,0.13785
54.079,-0.0015,0.13785
54.1,-0.0015,0.1377
54.12,-0.00135,0.1377
54.141,-0.00105,0.1377
54.161,-0.00105,0.1377
54.181,-0.00105,0.1377
54.201,-0.00105,0.13755
54.221,-0.00105,0.13755
54.241,-0.0012,0.13755
54.261,-0.0012,0.1377
54.28,-0.0015,0.13755
54.3,-0.00135,0.13755
54.32,-0.0015,0.1377
54.34,-0.00135,0.1377
54.36,-0.0015,0.13785
54.38,-0.00135,0.13785
54.4,-0.00135,0.13785
54.421,-0.00105,0.13785
54.44,-0.00105,0.1377
54.46,-0.00135,0.13755
54.48,-0.00135,0.13755
54.5,-0.00135,0.13755
54.52,-0.00135,0.13755
54.54,-0.00135,0.13755
54.559,-0.00165,0.1374
54.58,-0.0015,0.1377
54.6,-0.00135,0.1377
54.62,-0.00135,0.1377
54.64,-0.00135,0.1377
54.66,-0.00135,0.1377
54.681,-0.00105,0.1377
54.7,-0.00135,0.1377
54.721,-0.00105,0.13785
54.74,-0.00135,0.13785
54.76,-0.00135,0.13785
54.78,-0.0015,0.138
54.8,-0.00135,0.138
54.819,-0.00165,0.1377
54.841,-0.00105,0.1377
54.861,-0.00105,0.1377
54.88,-0.00105,0.1377
54.9,-0.00105,0.13755
54.92,-0.00135,0.1377
54.941,-0.0012,0.1377
54.961,-0.00105,0.1377
54.98,-0.00105,0.1377
55,-0.00105,0.1377
55.02,-0.00135,0.13755
55.041,-0.00105,0.1377
55.06,-0.00105,0.1377
55.08,-0.00105,0.138
55.099,-0.00135,0.138
55.12,-0.00105,0.138
55.14,-0.00105,0.138
55.16,-0.00105,0.138
55.18,-0.00105,0.138
55.2,-0.00135,0.13815
55.22,-0.00135,0.138
55.241,-0.00105,0.13815
55.26,-0.00135,0.138
55.28,-0.00135,0.13785
55.3,-0.00105,0.1377
55.32,-0.00105,0.138
55.34,-0.00105,0.13815
55.36,-0.00105,0.1383
55.38,-0.00135,0.1383
55.4,-0.00135,0.1383
55.42,-0.00135,0.1383
55.44,-0.00135,0.13815
55.46,-0.00135,0.1383
55.48,-0.00135,0.13845
55.5,-0.00135,0.13845
55.52,-0.00135,0.1383
55.54,-0.00135,0.1383
55.56,-0.00135,0.1383
55.58,-0.00135,0.1383
55.6,-0.00135,0.13845
55.619,-0.00165,0.13815
55.64,-0.00135,0.13815
55.66,-0.00135,0.13815
55.68,-0.00135,0.13815
55.7,-0.00135,0.1383
55.721,-0.00105,0.1383
55.74,-0.00135,0.1383
55.761,-0.00105,0.1383
55.781,-0.00105,0.1383
55.8,-0.0009,0.1383
55.82,-0.00105,0.1383
55.839,-0.00135,0.13815
55.86,-0.0009,0.1383
55.88,-0.00105,0.1383
55.9,-0.00105,0.13815
55.92,-0.00105,0.138
55.94,-0.00135,0.138
55.96,-0.00135,0.13815
55.98,-0.00135,0.13815
56,-0.0012,0.13815
56.02,-0.00135,0.1383
56.04,-0.00105,0.13815
56.06,-0.0009,0.138
56.08,-0.00105,0.138
56.1,-0.0009,0.13815
56.12,-0.0012,0.13815
56.14,-0.00135,0.138
56.161,-0.00105,0.13785
56.181,-0.0009,0.1377
56.2,-0.0009,0.13755
56.22,-0.00105,0.13785
56.24,-0.0009,0.13785
56.26,-0.0009,0.138
56.28,-0.00105,0.13815
56.299,-0.0012,0.138
56.32,-0.0009,0.138
56.34,-0.0009,0.13815
56.36,-0.0012,0.13815
56.38,-0.0012,0.138
56.399,-0.0012,0.13815
56.42,-0.0009,0.138
56.44,-0.0009,0.138
56.46,-0.0012,0.13815
56.48,-0.0012,0.13845
56.5,-0.0012,0.1383
56.52,-0.0012,0.138
56.54,-0.0012,0.138
56.56,-0.0012,0.13785
56.58,-0.0012,0.13785
56.6,-0.0012,0.13785
56.621,-0.0006,0.138
56.641,-0.0009,0.13815
56.66,-0.0009,0.138
56.68,-0.0009,0.138
56.7,-0.0009,0.138
56.72,-0.0009,0.1383
56.74,-0.0009,0.13815
56.76,-0.0012,0.138
56.78,-0.0012,0.13785
56.8,-0.0012,0.138
56.821,-0.0009,0.13815
56.84,-0.0009,0.13815
56.86,-0.0009,0.13815
56.88,-0.0009,0.13815
56.9,-0.0009,0.138
56.92,-0.0009,0.13815
56.94,-0.0012,0.13815
56.96,-0.0012,0.13815
56.98,-0.0012,0.13815
56.999,-0.0015,0.13815
57.02,-0.0012,0.138
57.04,-0.0012,0.138
57.061,-0.0009,0.138
57.08,-0.0009,0.13785
57.1,-0.0009,0.13785
57.121,-0.00075,0.138
57.14,-0.00075,0.138
57.16,-0.0009,0.138
57.18,-0.0012,0.138
57.2,-0.00105,0.138
57.22,-0.0012,0.138
57.24,-0.00105,0.138
57.26,-0.00105,0.13815
57.28,-0.00105,0.13815
57.3,-0.00105,0.13815
57.32,-0.0012,0.13815
57.34,-0.0012,0.138
57.36,-0.0012,0.1377
57.38,-0.00105,0.1377
57.399,-0.0015,0.13755
57.42,-0.00105,0.1374
57.439,-0.00135,0.13755
57.46,-0.00105,0.1377
57.48,-0.00105,0.13785
57.499,-0.0015,0.13785
57.519,-0.0015,0.1377
57.54,-0.00105,0.13785
57.561,-0.00075,0.13785
57.58,-0.00105,0.13785
57.6,-0.00105,0.1377
57.62,-0.00105,0.13785
57.64,-0.00105,0.13785
57.66,-0.00105,0.13815
57.68,-0.00105,0.1383
57.7,-0.00105,0.13815
57.72,-0.00105,0.1383
57.74,-0.0012,0.1383
57.76,-0.00105,0.1383
57.779,-0.00105,0.13815
57.8,-0.00075,0.13815
57.82,-0.00075,0.13815
57.84,-0.00075,0.13815
57.86,-0.00075,0.13815
57.879,-0.00105,0.138
57.9,-0.0009,0.138
57.92,-0.00075,0.138
57.94,-0.00105,0.138
57.96,-0.00105,0.13785
57.98,-0.00105,0.13785
58,-0.0009,0.13785
58.02,-0.0012,0.1377
58.04,-0.0009,0.13785
58.06,-0.00105,0.1377
58.08,-0.00105,0.13785
58.101,-0.0009,0.1377
58.12,-0.00105,0.13785
58.14,-0.00105,0.138
58.159,-0.0015,0.13785
58.18,-0.00105,0.1377
58.201,-0.00075,0.1377
58.22,-0.0012,0.13785
58.24,-0.00105,0.138
58.259,-0.00105,0.138
58.28,-0.0006,0.13785
58.3,-0.00105,0.13785
58.32,-0.00105,0.13785
58.34,-0.00105,0.13785
58.36,-0.00105,0.138
58.38,-0.00105,0.13785
58.4,-0.00105,0.13785
58.42,-0.00105,0.13785
58.44,-0.00105,0.138
58.461,-0.0006,0.13815
58.48,-0.00105,0.13785
58.5,-0.00105,0.1377
58.52,-0.00075,0.1377
58.539,-0.0012,0.13785
58.56,-0.0009,0.13785
58.58,-0.00105,0.138
58.6,-0.00105,0.13815
58.619,-0.00105,0.138
58.64,-0.0012,0.138
58.66,-0.00105,0.13785
58.68,-0.0012,0.138
58.7,-0.00105,0.138
58.719,-0.0015,0.13815
58.74,-0.0012,0.13815
58.76,-0.00105,0.13815
58.78,-0.00105,0.138
58.8,-0.0012,0.13815
58.82,-0.00105,0.13785
58.84,-0.00105,0.13785
58.86,-0.00105,0.13785
58.88,-0.00105,0.13785
58.9,-0.00105,0.138
58.92,-0.0006,0.13785
58.94,-0.00075,0.138
58.96,-0.00105,0.13815
58.98,-0.0012,0.138
59,-0.00105,0.13785
59.021,-0.00075,0.138
59.042,-0.00075,0.138
59.06,-0.0009,0.138
59.08,-0.0012,0.13785
59.1,-0.00075,0.138
59.12,-0.0012,0.1377
59.14,-0.0012,0.13785
59.16,-0.00105,0.13785
59.18,-0.0006,0.13785
59.2,-0.00105,0.13785
59.22,-0.0012,0.138
59.24,-0.00105,0.138
59.26,-0.0012,0.13815
59.28,-0.00105,0.13815
59.3,-0.00105,0.1383
59.32,-0.00105,0.13815
59.34,-0.00105,0.13815
59.36,-0.00105,0.13815
59.38,-0.00105,0.138
59.4,-0.00105,0.13815
59.42,-0.00105,0.13815
59.439,-0.00135,0.138
59.46,-0.00105,0.13815
59.48,-0.00105,0.1383
59.501,-0.0009,0.1383
59.521,-0.0006,0.13815
59.54,-0.0006,0.13815
59.56,-0.0006,0.13785
59.58,-0.0009,0.138
59.6,-0.00075,0.13815
59.62,-0.0012,0.13815
59.64,-0.0006,0.13815
59.66,-0.0012,0.13815
59.68,-0.00075,0.13785
59.7,-0.00105,0.1377
59.72,-0.00105,0.13785
59.74,-0.00075,0.13815
59.76,-0.00075,0.138
59.78,-0.0012,0.13785
59.8,-0.0009,0.1377
59.82,-0.00105,0.1377
59.84,-0.0009,0.13785
59.86,-0.00105,0.13785
59.88,-0.00105,0.13785
59.9,-0.00105,0.13785
59.92,-0.00105,0.13785
59.941,-0.0009,0.138
59.961,-0.0009,0.138
59.98,-0.00075,0.138
60,-0.00105,0.13815
60.02,-0.00105,0.138
60.04,-0.0009,0.13785
60.061,-0.00075,0.13785
60.08,-0.0009,0.1377
60.1,-0.00105,0.1377
60.12,-0.0009,0.1377
60.14,-0.00105,0.1377
60.16,-0.0009,0.13785
60.18,-0.0009,0.1377
60.199,-0.00105,0.1374
60.22,-0.00075,0.1374
60.239,-0.0009,0.1377
60.26,-0.00075,0.13755
60.28,-0.00075,0.1377
60.3,-0.00075,0.13785
60.32,-0.00075,0.13785
60.34,-0.0009,0.138
60.36,-0.00075,0.138
60.38,-0.00075,0.13785
60.4,-0.00075,0.13785
60.42,-0.0009,0.138
60.44,-0.0009,0.13815
60.461,-0.00075,0.138
60.481,-0.00075,0.13785
60.5,-0.0009,0.1377
60.52,-0.00075,0.1377
60.54,-0.00075,0.1377
60.56,-0.00075,0.1377
60.58,-0.00075,0.13785
60.6,-0.00075,0.1377
60.62,-0.00075,0.13785
60.64,-0.00075,0.1377
60.66,-0.00075,0.1377
60.679,-0.0009,0.1377
60.7,-0.00075,0.1377
60.72,-0.00075,0.1377
60.74,-0.0009,0.1377
60.76,-0.0009,0.1377
60.78,-0.0009,0.1377
60.8,-0.0009,0.1377
60.819,-0.00105,0.13755
60.84,-0.0009,0.13755
60.86,-0.0009,0.1374
60.88,-0.0009,0.13755
60.899,-0.00105,0.1377
60.92,-0.00075,0.1377
60.94,-0.0009,0.13785
60.961,-0.00075,0.1377
60.981,-0.00075,0.1377
61,-0.00075,0.13755
61.02,-0.00075,0.1377
61.04,-0.00075,0.1377
61.06,-0.00075,0.13785
61.08,-0.00075,0.13785
61.1,-0.00075,0.13785
61.12,-0.00075,0.138
61.14,-0.00075,0.138
61.16,-0.00075,0.138
61.18,-0.00075,0.138
61.199,-0.0009,0.138
61.22,-0.00075,0.13785
61.24,-0.00075,0.13785
61.26,-0.0009,0.13785
61.28,-0.00075,0.13785
61.3,-0.0009,0.13785
61.32,-0.0009,0.13785
61.34,-0.0009,0.13785
61.359,-0.00075,0.138
61.38,-0.00075,0.1377
61.4,-0.00075,0.13755
61.42,-0.00075,0.1377
61.44,-0.00075,0.13755
61.459,-0.00075,0.13785
61.48,-0.00075,0.138
61.5,-0.00075,0.138
61.52,-0.00075,0.13785
61.539,-0.00105,0.138
61.56,-0.00075,0.138
61.58,-0.00075,0.138
61.6,-0.00075,0.138
61.62,-0.00075,0.13785
61.64,-0.00075,0.13785
61.66,-0.00075,0.13785
61.68,-0.00075,0.13755
61.7,-0.00075,0.13755
61.72,-0.00075,0.13755
61.74,-0.0009,0.1374
61.76,-0.00105,0.13755
61.78,-0.0012,0.1374
61.8,-0.00075,0.13755
61.821,-0.00075,0.13755
61.84,-0.00075,0.1377
61.86,-0.00075,0.13785
61.88,-0.00075,0.13785
61.9,-0.00075,0.13785
61.92,-0.00075,0.138
61.94,-0.00075,0.13785
61.96,-0.00075,0.13755
61.98,-0.00075,0.13755
62,-0.00075,0.138
62.02,-0.0009,0.13785
62.04,-0.00105,0.138
62.06,-0.0006,0.138
62.08,-0.0012,0.13815
62.099,-0.00105,0.138
62.12,-0.00075,0.138
62.14,-0.00075,0.1377
62.162,-0.0006,0.13785
62.181,-0.00075,0.138
62.2,-0.00075,0.13785
62.22,-0.00075,0.1377
62.24,-0.00075,0.1377
62.26,-0.00075,0.13785
62.28,-0.00075,0.138
62.3,-0.00075,0.13785
62.32,-0.00075,0.138
62.34,-0.00075,0.13785
62.36,-0.0006,0.13785
62.38,-0.0006,0.13785
62.4,-0.00105,0.1377
62.42,-0.0006,0.13755
62.44,-0.00075,0.13785
62.46,-0.00075,0.13815
62.48,-0.0006,0.13815
62.5,-0.0012,0.13815
62.52,-0.00075,0.13815
62.541,-0.00075,0.13815
62.56,-0.0009,0.13815
62.58,-0.0009,0.138
62.6,-0.00075,0.1377
62.621,-0.00075,0.13785
62.64,-0.00075,0.13785
62.66,-0.0012,0.1377
62.68,-0.0006,0.13755
62.7,-0.00075,0.1377
62.721,-0.00075,0.1377
62.74,-0.00105,0.13785
62.76,-0.0006,0.1377
62.78,-0.0006,0.13755
62.801,-0.00075,0.1377
62.821,-0.00075,0.13755
62.84,-0.00075,0.13755
62.86,-0.0006,0.1377
62.879,-0.00105,0.13785
62.901,-0.00075,0.13785
62.92,-0.00075,0.13785
62.94,-0.00075,0.138
62.96,-0.00075,0.138
62.98,-0.00075,0.13785
63,-0.00075,0.138
63.019,-0.00105,0.138
63.04,-0.00075,0.13815
63.06,-0.00075,0.13815
63.08,-0.00075,0.13785
63.1,-0.00075,0.13785
63.119,-0.00105,0.13785
63.141,-0.00075,0.13785
63.16,-0.00075,0.13755
63.18,-0.0012,0.13785
63.2,-0.00075,0.13785
63.219,-0.00105,0.13785
63.24,-0.00075,0.13785
63.26,-0.00075,0.1377
63.28,-0.00075,0.13755
63.3,-0.00075,0.13755
63.32,-0.0009,0.13725
63.34,-0.00075,0.13725
63.36,-0.0009,0.13755
63.38,-0.00075,0.1377
63.4,-0.00075,0.1377
63.421,-0.0006,0.1377
63.441,-0.00075,0.1377
63.46,-0.00075,0.1377
63.48,-0.00075,0.13785
63.5,-0.00075,0.138
63.52,-0.0006,0.13785
63.54,-0.00075,0.13785
63.56,-0.0009,0.13785
63.58,-0.0009,0.138
63.6,-0.00075,0.13785
63.62,-0.0009,0.13785
63.64,-0.0009,0.13785
63.66,-0.00075,0.13785
63.68,-0.00075,0.13785
63.7,-0.00075,0.1377
63.72,-0.0006,0.1377
63.74,-0.00075,0.13755
63.76,-0.00075,0.13785
63.78,-0.0006,0.138
63.8,-0.00075,0.138
63.82,-0.00075,0.13785
63.84,-0.00075,0.138
63.86,-0.0006,0.13785
63.881,-0.0006,0.13785
63.9,-0.00075,0.1377
63.92,-0.00075,0.1377
63.94,-0.00075,0.13785
63.959,-0.00075,0.13785
63.979,-0.0009,0.13785
64,-0.00075,0.13785
64.02,-0.0006,0.138
64.04,-0.0006,0.138
64.059,-0.00075,0.13785
64.08,-0.0006,0.138
64.1,-0.0006,0.13785
64.12,-0.0006,0.13785
64.14,-0.00075,0.13785
64.16,-0.00075,0.13785
64.181,-0.0006,0.1377
64.201,-0.0006,0.13785
64.22,-0.0006,0.13785
64.24,-0.00075,0.138
64.261,-0.0006,0.13785
64.28,-0.0006,0.1377
64.3,-0.0006,0.1377
64.32,-0.0006,0.1377
64.34,-0.00075,0.13755
64.36,-0.00075,0.1377
64.38,-0.00075,0.138
64.4,-0.00075,0.138
64.42,-0.00075,0.13785
64.44,-0.00075,0.13815
64.461,-0.0006,0.1377
64.48,-0.0006,0.1377
64.5,-0.0006,0.13755
64.52,-0.0006,0.13785
64.54,-0.0006,0.13785
64.56,-0.0006,0.13785
64.58,-0.00075,0.13785
64.6,-0.0006,0.1377
64.62,-0.00075,0.13785
64.64,-0.00075,0.13785
64.66,-0.00075,0.13785
64.68,-0.00075,0.13785
64.699,-0.00075,0.13785
64.72,-0.00075,0.1377
64.74,-0.00075,0.13755
64.76,-0.00075,0.13755
64.78,-0.00075,0.13755
64.8,-0.00075,0.13755
64.82,-0.00075,0.13785
64.841,-0.0006,0.13785
64.861,-0.0006,0.1377
64.881,-0.00075,0.13755
64.901,-0.00075,0.13755
64.92,-0.0006,0.1377
64.94,-0.0006,0.13785
64.96,-0.00075,0.138
64.98,-0.00075,0.13785
65.001,-0.0006,0.13785
65.021,-0.0006,0.138
65.041,-0.0006,0.1377
65.06,-0.0006,0.1377
65.08,-0.0006,0.1377
65.1,-0.0006,0.1377
65.12,-0.0006,0.1377
65.14,-0.0006,0.1377
65.16,-0.0006,0.13785
65.18,-0.0006,0.13785
65.2,-0.0006,0.1377
65.22,-0.0006,0.13755
65.24,-0.00075,0.1377
65.259,-0.00105,0.1377
65.28,-0.00075,0.13755
65.3,-0.0006,0.13755
65.32,-0.00075,0.13755
65.34,-0.00075,0.13755
65.36,-0.0009,0.13755
65.38,-0.00075,0.1377
65.4,-0.00075,0.1377
65.421,-0.0006,0.1377
65.44,-0.0006,0.1377
65.46,-0.0006,0.13785
65.481,-0.00075,0.13785
65.501,-0.0006,0.13785
65.52,-0.00075,0.138
65.54,-0.0006,0.138
65.56,-0.0006,0.13815
65.58,-0.00075,0.13815
65.6,-0.00075,0.138
65.62,-0.00075,0.138
65.64,-0.00075,0.13785
65.66,-0.00075,0.138
65.68,-0.00075,0.13785
65.7,-0.00075,0.13785
65.72,-0.00075,0.1377
65.74,-0.00075,0.13785
65.76,-0.00075,0.13785
65.78,-0.00075,0.138
65.8,-0.00075,0.138
65.819,-0.00075,0.13785
65.84,-0.00075,0.1377
65.86,-0.00075,0.13785
65.88,-0.00075,0.138
65.9,-0.00075,0.138
65.92,-0.00075,0.138
65.94,-0.00075,0.138
65.96,-0.00075,0.13785
65.98,-0.00075,0.13755
65.999,-0.00105,0.13755
66.02,-0.0006,0.1377
66.041,-0.00075,0.1377
66.06,-0.0006,0.1377
66.08,-0.00075,0.13755
66.099,-0.00075,0.1377
66.12,-0.0006,0.1377
66.14,-0.00075,0.1377
66.16,-0.0006,0.13785
66.18,-0.0006,0.138
66.199,-0.0012,0.13785
66.22,-0.0006,0.1377
66.24,-0.0006,0.1377
66.26,-0.0006,0.1377
66.28,-0.0006,0.13785
66.3,-0.0006,0.13785
66.32,-0.0006,0.13785
66.341,-0.00075,0.13785
66.36,-0.00075,0.13785
66.38,-0.00075,0.13785
66.401,-0.00075,0.13785
66.42,-0.00075,0.13785
66.44,-0.00075,0.1377
66.46,-0.00075,0.13755
66.48,-0.0006,0.13755
66.5,-0.00075,0.13755
66.52,-0.00075,0.13755
66.54,-0.0006,0.13755
66.56,-0.0006,0.1377
66.58,-0.0006,0.13755
66.6,-0.0006,0.1374
66.62,-0.0006,0.13755
66.64,-0.0006,0.13755
66.659,-0.0006,0.1374
66.68,-0.0006,0.13755
66.7,-0.0006,0.1377
66.72,-0.0006,0.138
66.74,-0.0006,0.138
66.76,-0.0006,0.138
66.78,-0.0006,0.138
66.801,-0.0006,0.138
66.82,-0.0006,0.138
66.841,-0.0006,0.13815
66.86,-0.0006,0.1377
66.88,-0.0006,0.1377
66.9,-0.0006,0.13785
66.92,-0.0006,0.1377
66.939,-0.0006,0.1377
66.96,-0.0006,0.1377
66.98,-0.0006,0.13785
67,-0.0006,0.138
67.021,-0.0006,0.1383
67.039,-0.0006,0.1383
67.06,-0.0006,0.13815
67.08,-0.0006,0.13815
67.1,-0.0006,0.13785
67.12,-0.0006,0.138
67.14,-0.0006,0.13785
67.16,-0.0006,0.13785
67.18,-0.0006,0.13785
67.2,-0.0006,0.138
67.219,-0.00075,0.138
67.24,-0.0006,0.13815
67.26,-0.0006,0.13785
67.28,-0.0006,0.13785
67.3,-0.0006,0.1377
67.32,-0.0006,0.1377
67.34,-0.0006,0.13785
67.361,-0.0006,0.13785
67.38,-0.0006,0.138
67.399,-0.0006,0.138
67.42,-0.0006,0.13785
67.44,-0.0006,0.1377
67.46,-0.0006,0.13785
67.48,-0.0006,0.13785
67.5,-0.00075,0.138
67.52,-0.0006,0.13815
67.54,-0.0006,0.13815
67.56,-0.0006,0.13815
67.579,-0.0006,0.138
67.6,-0.0006,0.1377
67.62,-0.0006,0.1377
67.64,-0.0006,0.138
67.66,-0.0006,0.13785
67.68,-0.0006,0.13785
67.7,-0.0006,0.138
67.72,-0.0006,0.13785
67.74,-0.0006,0.13785
67.76,-0.0006,0.13785
67.78,-0.0006,0.13785
67.8,-0.0006,0.1377
67.821,-0.0006,0.13755
67.84,-0.0006,0.1377
67.86,-0.0006,0.1377
67.88,-0.0006,0.13785
67.901,-0.0006,0.138
67.92,-0.0006,0.13785
67.94,-0.0006,0.138
67.96,-0.0006,0.13785
67.98,-0.0006,0.13785
67.999,-0.00075,0.13785
68.02,-0.0006,0.13785
68.039,-0.00075,0.138
68.06,-0.00075,0.138
68.08,-0.0006,0.13815
68.101,-0.0006,0.138
68.121,-0.0006,0.13785
68.14,-0.00075,0.1377
68.161,-0.0006,0.13785
68.18,-0.0006,0.13785
68.2,-0.0006,0.13785
68.22,-0.0006,0.13785
68.241,-0.0006,0.138
68.261,-0.0006,0.138
68.28,-0.0006,0.13785
68.3,-0.0006,0.13785
68.32,-0.0006,0.13785
68.34,-0.0006,0.13785
68.36,-0.00045,0.1377
68.38,-0.0006,0.13785
68.4,-0.00045,0.13785
68.42,-0.00075,0.1377
68.44,-0.00075,0.1377
68.46,-0.00075,0.1377
68.481,-0.0006,0.13785
68.5,-0.00045,0.13785
68.52,-0.00075,0.13785
68.539,-0.00075,0.1377
68.56,-0.00075,0.1377
68.58,-0.00075,0.138
68.599,-0.0006,0.138
68.62,-0.00075,0.138
68.64,-0.0006,0.138
68.66,-0.00075,0.138
68.68,-0.00075,0.13785
68.699,-0.00075,0.138
68.72,-0.00045,0.138
68.74,-0.00045,0.138
68.76,-0.00045,0.13815
68.78,-0.0006,0.1383
68.8,-0.00045,0.1383
68.82,-0.00045,0.13815
68.84,-0.0006,0.138
68.86,-0.00075,0.138
68.88,-0.00075,0.138
68.9,-0.00075,0.1377
68.92,-0.00075,0.1377
68.94,-0.00075,0.13785
68.96,-0.0006,0.13785
68.979,-0.0006,0.1377
69,-0.00075,0.138
69.02,-0.00075,0.138
69.04,-0.00075,0.138
69.059,-0.00075,0.138
69.08,-0.00045,0.138
69.1,-0.00045,0.13815
69.12,-0.00045,0.13785
69.14,-0.0006,0.1377
69.16,-0.0006,0.1377
69.18,-0.00075,0.1377
69.2,-0.0006,0.1374
69.221,-0.0006,0.13755
69.24,-0.00075,0.1377
69.261,-0.00045,0.13755
69.28,-0.00045,0.13755
69.3,-0.00045,0.1377
69.321,-0.00075,0.1377
69.34,-0.00045,0.1377
69.36,-0.00045,0.1377
69.38,-0.0006,0.1377
69.4,-0.0006,0.1377
69.42,-0.0006,0.1377
69.44,-0.0006,0.1377
69.46,-0.0006,0.13755
69.48,-0.0006,0.138
69.5,-0.0006,0.138
69.52,-0.0006,0.1377
69.54,-0.0006,0.1377
69.56,-0.0006,0.1377
69.581,-0.0006,0.13815
69.601,-0.00045,0.13785
69.621,-0.00045,0.13785
69.64,-0.00045,0.13785
69.66,-0.0006,0.13785
69.68,-0.0006,0.1377
69.7,-0.0006,0.1377
69.721,-0.0006,0.13755
69.74,-0.0006,0.1377
69.76,-0.0006,0.1377
69.78,-0.0006,0.13785
69.8,-0.0006,0.13785
69.82,-0.0006,0.13785
69.84,-0.0006,0.138
69.86,-0.0006,0.138
69.88,-0.0006,0.13785
69.9,-0.0006,0.13785
69.92,-0.0006,0.13785
69.94,-0.0006,0.1377
69.96,-0.0006,0.13755
69.98,-0.0006,0.1377
70,-0.0006,0.1377
70.02,-0.0006,0.13785
70.04,-0.0006,0.138
70.061,-0.0006,0.138
70.081,-0.0006,0.13785
70.101,-0.0006,0.138
70.121,-0.0006,0.138
70.14,-0.0006,0.13785
70.16,-0.0006,0.13785
70.181,-0.0006,0.1377
70.201,-0.0006,0.1377
70.221,-0.0006,0.13785
70.24,-0.0006,0.1377
70.26,-0.0006,0.1377
70.279,-0.0006,0.13755
70.3,-0.0006,0.13755
70.32,-0.0006,0.13755
70.34,-0.0006,0.13755
70.36,-0.0006,0.1377
70.38,-0.0006,0.13755
70.4,-0.0006,0.13785
70.42,-0.0006,0.13785
70.44,-0.0006,0.13785
70.46,-0.0006,0.138
70.48,-0.0006,0.138
70.5,-0.0006,0.13785
70.52,-0.0006,0.138
70.541,-0.0006,0.138
70.561,-0.0006,0.138
70.58,-0.0006,0.1377
70.601,-0.0006,0.13785
70.62,-0.0006,0.13755
70.64,-0.0006,0.1377
70.66,-0.0006,0.13755
70.68,-0.0006,0.13755
70.7,-0.0006,0.1377
70.72,-0.0006,0.1377
70.741,-0.0006,0.1377
70.759,-0.0006,0.13785
70.78,-0.0006,0.1377
70.8,-0.0006,0.1377
70.82,-0.0006,0.13755
70.84,-0.0006,0.1377
70.86,-0.0006,0.1377
70.88,-0.0006,0.13785
70.9,-0.0006,0.13785
70.92,-0.0006,0.13785
70.939,-0.0006,0.13785
70.96,-0.0006,0.138
70.98,-0.0006,0.13815
71,-0.0006,0.13815
71.02,-0.0006,0.13815
71.04,-0.0006,0.138
71.06,-0.0006,0.13815
71.08,-0.0006,0.1383
71.1,-0.0006,0.13845
71.12,-0.0006,0.1383
71.141,-0.0006,0.138
71.16,-0.0006,0.13815
71.181,-0.0006,0.13815
71.2,-0.00045,0.13815
71.22,-0.0006,0.13815
71.24,-0.0006,0.13815
71.261,-0.0006,0.13815
71.28,-0.0006,0.13845
71.3,-0.00045,0.13845
71.319,-0.0006,0.1383
71.34,-0.0006,0.138
71.36,-0.0006,0.13815
71.38,-0.00045,0.13815
71.399,-0.0006,0.13845
71.42,-0.0006,0.1383
71.44,-0.0006,0.1383
71.46,-0.0006,0.1383
71.48,-0.0006,0.1383
71.501,-0.0006,0.13815
71.52,-0.00045,0.13815
71.54,-0.0006,0.13815
71.561,-0.0006,0.138
71.581,-0.0006,0.13815
71.6,-0.00075,0.1383
71.62,-0.00075,0.13785
71.64,-0.0006,0.138
71.66,-0.0006,0.13785
71.679,-0.0006,0.13785
71.7,-0.0006,0.138
71.72,-0.0006,0.13815
71.74,-0.0006,0.1383
71.759,-0.0006,0.1383
71.78,-0.0006,0.1383
71.8,-0.0006,0.13815
71.82,-0.00075,0.1383
71.839,-0.00045,0.13815
71.86,-0.0006,0.13815
71.88,-0.00045,0.13815
71.9,-0.0006,0.13815
71.92,-0.00045,0.13815
71.94,-0.00045,0.13815
71.96,-0.0006,0.13815
71.98,-0.0006,0.13815
72,-0.0006,0.13815
72.02,-0.0006,0.13815
72.039,-0.00045,0.13815
72.06,-0.00075,0.13815
72.08,-0.0006,0.1383
72.1,-0.0006,0.1383
72.12,-0.00045,0.13815
72.139,-0.00045,0.138
72.16,-0.00075,0.138
72.18,-0.0006,0.13815
72.2,-0.00045,0.1383
72.22,-0.00045,0.13815
72.239,-0.00045,0.13785
72.26,-0.00075,0.13785
72.28,-0.0006,0.13815
72.3,-0.0006,0.138
72.32,-0.0006,0.13815
72.34,-0.00075,0.13815
72.36,-0.00075,0.13815
72.38,-0.00075,0.13815
72.4,-0.00075,0.13815
72.42,-0.00075,0.138
72.44,-0.00075,0.13815
72.46,-0.00075,0.1383
72.48,-0.0006,0.1383
72.5,-0.00045,0.13815
72.52,-0.00045,0.13815
72.541,-0.00075,0.13815
72.56,-0.00075,0.13815
72.58,-0.0009,0.1383
72.6,-0.00075,0.1383
72.62,-0.00075,0.1383
72.639,-0.00045,0.1383
72.66,-0.00075,0.138
72.68,-0.00075,0.13785
72.699,-0.0006,0.1377
72.72,-0.00075,0.13785
72.741,-0.0009,0.13785
72.76,-0.00075,0.13785
72.78,-0.00045,0.1377
72.799,-0.00045,0.13785
72.82,-0.00075,0.13785
72.84,-0.00075,0.138
72.86,-0.00075,0.13815
72.88,-0.00075,0.13815
72.9,-0.00075,0.13815
72.92,-0.0006,0.138
72.94,-0.00075,0.13785
72.96,-0.00045,0.138
72.98,-0.00045,0.138
73,-0.00045,0.13815
73.02,-0.00045,0.13815
73.04,-0.0006,0.13815
73.06,-0.0006,0.13815
73.079,-0.0006,0.138
73.1,-0.00075,0.13785
73.12,-0.00075,0.1377
73.14,-0.00075,0.138
73.16,-0.00045,0.13785
73.18,-0.0006,0.138
73.2,-0.00045,0.138
73.22,-0.00045,0.13785
73.24,-0.00045,0.13815
73.26,-0.00045,0.1383
73.279,-0.0006,0.13815
73.3,-0.00045,0.13785
73.32,-0.00045,0.13785
73.34,-0.00045,0.13785
73.36,-0.00045,0.13785
73.38,-0.0006,0.13785
73.4,-0.00075,0.138
73.42,-0.00075,0.138
73.44,-0.00075,0.138
73.46,-0.0006,0.138
73.48,-0.00075,0.13815
73.5,-0.00075,0.13785
73.52,-0.0006,0.13785
73.54,-0.0006,0.13785
73.559,-0.00045,0.138
73.58,-0.00075,0.13815
73.6,-0.00045,0.13815
73.62,-0.00045,0.1383
73.639,-0.00075,0.13845
73.659,-0.0006,0.1383
73.68,-0.00075,0.13815
73.7,-0.00075,0.13815
73.72,-0.00075,0.13815
73.74,-0.00075,0.13815
73.759,-0.0006,0.1383
73.78,-0.00075,0.1383
73.8,-0.00075,0.138
73.82,-0.00075,0.13785
73.84,-0.00075,0.138
73.86,-0.00075,0.13815
73.88,-0.00075,0.13845
73.9,-0.00075,0.13815
73.92,-0.00075,0.13815
73.94,-0.00045,0.13815
73.96,-0.00045,0.13815
73.98,-0.0006,0.1383
74,-0.0006,0.13815
74.02,-0.00045,0.1383
74.04,-0.0006,0.1383
74.06,-0.0006,0.13815
74.081,-0.00075,0.13815
74.1,-0.00075,0.13815
74.12,-0.0006,0.138
74.14,-0.00075,0.138
74.16,-0.00075,0.13785
74.18,-0.00075,0.13785
74.2,-0.0006,0.138
74.22,-0.00075,0.138
74.24,-0.00075,0.138
74.26,-0.0006,0.13815
74.28,-0.00045,0.138
74.3,-0.00045,0.13815
74.319,-0.00045,0.13815
74.34,-0.00045,0.13815
74.36,-0.0006,0.13815
74.38,-0.00045,0.13815
74.399,-0.0006,0.138
74.42,-0.0006,0.1383
74.44,-0.00045,0.13815
74.46,-0.00045,0.13815
74.48,-0.00045,0.1383
74.5,-0.00045,0.138
74.52,-0.0006,0.138
74.54,-0.00045,0.13815
74.561,-0.00075,0.1383
74.581,-0.00075,0.13815
74.6,-0.0006,0.13815
74.62,-0.00075,0.13815
74.64,-0.0006,0.13815
74.66,-0.0006,0.13785
74.68,-0.00045,0.13815
74.7,-0.0006,0.13815
74.72,-0.00045,0.13815
74.74,-0.00045,0.138
74.76,-0.00045,0.138
74.779,-0.0006,0.13785
74.8,-0.00045,0.138
74.821,-0.00075,0.138
74.841,-0.00075,0.138
74.861,-0.00075,0.138
74.88,-0.00075,0.138
74.9,-0.00075,0.138
74.92,-0.00075,0.138
74.94,-0.00075,0.138
74.959,-0.00045,0.13785
74.98,-0.00075,0.13785
75,-0.00075,0.13785
75.02,-0.00045,0.138
75.04,-0.00045,0.13785
75.06,-0.0006,0.13785
75.08,-0.0006,0.138
75.1,-0.0006,0.13785
75.12,-0.0006,0.138
75.14,-0.00045,0.1377
75.159,-0.0006,0.1377
75.18,-0.00045,0.13785
75.2,-0.00045,0.1377
75.22,-0.00045,0.13785
75.241,-0.00075,0.13785
75.26,-0.00075,0.138
75.28,-0.00075,0.138
75.3,-0.00075,0.138
75.32,-0.00075,0.13815
75.339,-0.0006,0.1383
75.361,-0.00075,0.13815
75.38,-0.00075,0.138
75.4,-0.00075,0.138
75.42,-0.00075,0.138
75.44,-0.00075,0.13815
75.46,-0.00075,0.138
75.48,-0.00045,0.13785
75.5,-0.0006,0.1377
75.519,-0.0006,0.13785
75.54,-0.00045,0.13785
75.56,-0.00045,0.13785
75.58,-0.0006,0.13785
75.6,-0.00045,0.13785
75.619,-0.0006,0.13815
75.64,-0.0006,0.13815
75.66,-0.00045,0.13815
75.68,-0.00045,0.13815
75.699,-0.0006,0.1383
75.72,-0.00075,0.13815
75.74,-0.00075,0.13815
75.76,-0.0006,0.138
75.78,-0.00075,0.138
75.8,-0.00045,0.13815
75.82,-0.00045,0.138
75.84,-0.00045,0.13785
75.86,-0.00045,0.13815
75.88,-0.0006,0.13815
75.901,-0.00075,0.138
75.92,-0.00075,0.13815
75.94,-0.00075,0.13815
75.96,-0.00075,0.13815
75.98,-0.00075,0.13815
76,-0.00075,0.1383
76.02,-0.00045,0.1383
76.04,-0.00045,0.1383
76.06,-0.00045,0.13815
76.08,-0.0006,0.13815
76.1,-0.00045,0.13815
76.12,-0.00045,0.13815
76.14,-0.00045,0.13815
76.16,-0.00045,0.13815
76.18,-0.00045,0.1383
76.2,-0.00045,0.1383
76.221,-0.00075,0.1383
76.241,-0.0006,0.1383
76.26,-0.0006,0.13815
76.281,-0.0006,0.138
76.301,-0.0006,0.13815
76.321,-0.00075,0.13845
76.341,-0.0006,0.13845
76.361,-0.00075,0.1383
76.38,-0.00075,0.13845
76.4,-0.00075,0.1386
76.42,-0.00075,0.1383
76.44,-0.00075,0.1383
76.46,-0.0006,0.13845
76.48,-0.00075,0.13845
76.5,-0.00075,0.13845
76.52,-0.0006,0.1383
76.54,-0.00075,0.1383
76.56,-0.00075,0.1383
76.58,-0.0006,0.1383
76.6,-0.00045,0.13845
76.621,-0.00075,0.13845
76.639,-0.00045,0.1386
76.66,-0.00075,0.1386
76.68,-0.0006,0.13845
76.7,-0.0006,0.1383
76.72,-0.00075,0.13845
76.74,-0.00045,0.1386
76.76,-0.0006,0.13845
76.78,-0.0006,0.1386
76.8,-0.00045,0.1386
76.819,-0.0006,0.1386
76.84,-0.00045,0.13845
76.859,-0.0006,0.1383
76.88,-0.0006,0.1383
76.9,-0.0006,0.13815
76.919,-0.0006,0.1383
76.94,-0.0006,0.1383
76.96,-0.0006,0.1383
76.98,-0.0006,0.1383
77.001,-0.0006,0.13845
77.02,-0.00045,0.1383
77.041,-0.00075,0.1383
77.06,-0.00075,0.1383
77.08,-0.00075,0.1383
77.1,-0.00075,0.1383
77.12,-0.0006,0.1383
77.14,-0.00075,0.1383
77.16,-0.00075,0.1383
77.18,-0.00075,0.13845
77.199,-0.0006,0.13845
77.22,-0.00045,0.13845
77.241,-0.00075,0.138
77.26,-0.00045,0.138
77.28,-0.0006,0.138
77.299,-0.0006,0.138
77.32,-0.00075,0.138
77.34,-0.00075,0.138
77.36,-0.00075,0.138
77.38,-0.00075,0.13815
77.4,-0.00045,0.138
77.421,-0.0006,0.13845
77.441,-0.0006,0.1383
77.46,-0.0006,0.1383
77.48,-0.0006,0.138
77.5,-0.00075,0.13815
77.52,-0.0006,0.138
77.54,-0.0006,0.1383
77.56,-0.0006,0.1383
77.579,-0.00045,0.1383
77.6,-0.0006,0.13815
77.62,-0.0006,0.13815
77.64,-0.0006,0.138
77.66,-0.0006,0.1377
77.68,-0.0006,0.13785
77.7,-0.00045,0.138
77.72,-0.0006,0.138
77.74,-0.00045,0.138
77.76,-0.0006,0.138
77.78,-0.0006,0.138
77.801,-0.0006,0.1383
77.821,-0.00075,0.13845
77.841,-0.00075,0.13815
77.86,-0.00045,0.13815
77.881,-0.0006,0.13815
77.901,-0.0006,0.138
77.92,-0.0006,0.13815
77.94,-0.0006,0.138
77.96,-0.0006,0.13815
77.981,-0.0006,0.13815
78.001,-0.0006,0.13815
78.02,-0.0006,0.1383
78.04,-0.0006,0.13845
78.06,-0.0006,0.1383
78.08,-0.0006,0.13815
78.1,-0.0006,0.1383
78.12,-0.0006,0.13815
78.14,-0.0006,0.13815
78.16,-0.00045,0.13815
78.181,-0.0006,0.13815
78.2,-0.0006,0.1383
78.22,-0.0006,0.13815
78.24,-0.0006,0.13815
78.26,-0.0006,0.1383
78.28,-0.0006,0.138
78.3,-0.0006,0.138
78.32,-0.0006,0.13815
78.34,-0.00045,0.13815
78.361,-0.0006,0.138
78.38,-0.0006,0.138
78.4,-0.0006,0.13815
78.42,-0.0006,0.13815
78.44,-0.0006,0.1383
78.46,-0.0006,0.1383
78.48,-0.0006,0.138
78.5,-0.0006,0.13815
78.52,-0.0006,0.13815
78.54,-0.00045,0.1383
78.56,-0.0006,0.13815
78.58,-0.00045,0.13815
78.6,-0.0006,0.1383
78.619,-0.0006,0.13815
78.64,-0.0006,0.1383
78.66,-0.0006,0.1383
78.68,-0.00045,0.13845
78.7,-0.0006,0.13845
78.719,-0.00075,0.1383
78.74,-0.0006,0.13845
78.76,-0.0006,0.1383
78.78,-0.00045,0.1383
78.8,-0.0006,0.13815
78.82,-0.0006,0.13845
78.84,-0.0006,0.1386
78.86,-0.0006,0.1383
78.88,-0.0006,0.13845
78.9,-0.0006,0.1386
78.92,-0.0006,0.13845
78.94,-0.0006,0.13845
78.96,-0.0006,0.1383
78.98,-0.0006,0.1383
78.999,-0.0006,0.13845
79.02,-0.0006,0.1383
79.04,-0.0006,0.1383
79.06,-0.00045,0.13845
79.08,-0.0006,0.1383
79.1,-0.0006,0.1383
79.12,-0.00045,0.13815
79.14,-0.00045,0.13815
79.159,-0.0006,0.138
79.179,-0.0006,0.13815
79.2,-0.0006,0.1383
79.221,-0.00075,0.13815
79.24,-0.0006,0.1383
79.26,-0.0006,0.138
79.28,-0.0006,0.138
79.3,-0.0006,0.138
79.321,-0.0006,0.13785
79.34,-0.0006,0.13785
79.359,-0.0006,0.13815
79.38,-0.0006,0.13815
79.4,-0.0006,0.13815
79.42,-0.0006,0.138
79.44,-0.0006,0.138
79.46,-0.0006,0.13815
79.48,-0.0006,0.13815
79.5,-0.0006,0.1383
79.521,-0.0006,0.1383
79.54,-0.0006,0.13815
79.56,-0.0006,0.1383
79.581,-0.0006,0.13815
79.601,-0.0006,0.13815
79.621,-0.0006,0.13845
79.64,-0.0006,0.13845
79.66,-0.0006,0.1383
79.681,-0.0006,0.1383
79.701,-0.0006,0.138
79.72,-0.0006,0.13815
79.74,-0.0006,0.13815
79.76,-0.0006,0.138
79.78,-0.0006,0.13815
79.8,-0.0006,0.138
79.82,-0.0006,0.13815
79.84,-0.0006,0.138
79.86,-0.0006,0.13815
79.88,-0.0006,0.1383
79.9,-0.0006,0.1383
79.92,-0.0006,0.13815
79.94,-0.0006,0.13815
79.96,-0.0006,0.13815
79.981,-0.0006,0.13815
80,-0.0006,0.13815
80.02,-0.0006,0.138
80.04,-0.0006,0.138
80.06,-0.0006,0.138
80.08,-0.0006,0.13815
80.1,-0.0006,0.1383
80.12,-0.0006,0.13845
80.14,-0.0006,0.13845
80.16,-0.0006,0.1383
80.18,-0.0006,0.13815
80.2,-0.0006,0.138
80.221,-0.0006,0.13815
80.241,-0.0006,0.1383
80.26,-0.0006,0.138
80.28,-0.0006,0.13815
80.3,-0.0006,0.13815
80.32,-0.0006,0.138
80.34,-0.0006,0.13815
80.36,-0.0006,0.13815
80.38,-0.0006,0.13815
80.4,-0.0006,0.1383
80.42,-0.00045,0.1383
80.44,-0.0006,0.1383
80.459,-0.0006,0.1383
80.48,-0.0006,0.13845
80.5,-0.0006,0.1386
80.52,-0.0006,0.1386
80.54,-0.0006,0.1383
80.56,-0.0006,0.13815
80.58,-0.0006,0.1383
80.6,-0.0006,0.1383
80.62,-0.0006,0.138
80.639,-0.00075,0.13785
80.66,-0.0006,0.13815
80.68,-0.0006,0.13815
80.7,-0.0006,0.13815
80.72,-0.0006,0.13815
80.739,-0.00075,0.138
80.76,-0.0006,0.13815
80.78,-0.0006,0.1383
80.8,-0.0006,0.13845
80.82,-0.0006,0.1383
80.84,-0.0006,0.1383
80.86,-0.0006,0.1383
80.88,-0.0006,0.138
80.9,-0.0006,0.13815
80.92,-0.0006,0.1383
80.94,-0.0006,0.1383
80.96,-0.0006,0.1383
80.98,-0.0006,0.1386
81,-0.0006,0.1386
81.02,-0.0006,0.13845
81.04,-0.0006,0.1383
81.06,-0.0006,0.1383
81.08,-0.0006,0.1383
81.1,-0.0006,0.1383
81.12,-0.0006,0.13815
81.14,-0.0006,0.1383
81.16,-0.0006,0.1383
81.18,-0.0006,0.138
81.2,-0.0006,0.138
81.22,-0.0006,0.13785
81.24,-0.0006,0.13785
81.26,-0.0006,0.138
81.28,-0.0006,0.13815
81.299,-0.00075,0.13815
81.32,-0.0006,0.13815
81.341,-0.0006,0.1383
81.36,-0.0006,0.13815
81.381,-0.0006,0.138
81.399,-0.0006,0.13815
81.42,-0.0006,0.1383
81.44,-0.0006,0.13815
81.46,-0.0006,0.1383
81.48,-0.0006,0.1383
81.5,-0.0006,0.1383
81.52,-0.0006,0.1383
81.54,-0.0006,0.13845
81.56,-0.0006,0.1383
81.58,-0.0006,0.1383
81.6,-0.0006,0.13845
81.621,-0.0006,0.13845
81.64,-0.0006,0.13845
81.661,-0.0006,0.13845
81.68,-0.0006,0.1383
81.701,-0.00045,0.13845
81.72,-0.0006,0.1383
81.74,-0.0006,0.1383
81.76,-0.0006,0.1383
81.78,-0.0006,0.1383
81.8,-0.0006,0.1383
81.82,-0.0006,0.1383
81.84,-0.0006,0.1383
81.86,-0.0006,0.13815
81.88,-0.0006,0.1383
81.9,-0.0006,0.1383
81.92,-0.0006,0.1383
81.94,-0.0006,0.1383
81.96,-0.0006,0.1383
81.981,-0.0006,0.13815
82,-0.0006,0.1383
82.02,-0.0006,0.13845
82.04,-0.0006,0.1386
82.06,-0.0006,0.1386
82.08,-0.0006,0.13845
82.1,-0.0006,0.13845
82.12,-0.0006,0.1383
82.141,-0.0006,0.1383
82.16,-0.0006,0.13845
82.18,-0.0006,0.13845
82.2,-0.0006,0.1386
82.22,-0.0006,0.1386
82.239,-0.0006,0.13875
82.26,-0.0006,0.1386
82.28,-0.0006,0.1386
82.301,-0.0006,0.13875
82.321,-0.0006,0.13875
82.34,-0.0006,0.1386
82.36,-0.0006,0.1383
82.38,-0.0006,0.1383
82.401,-0.00045,0.1383
82.42,-0.0006,0.13845
82.441,-0.0006,0.1383
82.461,-0.0006,0.1383
82.48,-0.0006,0.1383
82.5,-0.0006,0.13845
82.52,-0.0006,0.1383
82.54,-0.00045,0.1383
82.56,-0.0006,0.13815
82.58,-0.0006,0.13815
82.6,-0.0006,0.13815
82.619,-0.00075,0.13815
82.64,-0.0006,0.1383
82.66,-0.0006,0.1383
82.68,-0.0006,0.1383
82.7,-0.0006,0.13815
82.719,-0.00075,0.13815
82.74,-0.0006,0.138
82.76,-0.0006,0.13815
82.78,-0.0006,0.13815
82.8,-0.0006,0.138
82.82,-0.0006,0.138
82.84,-0.0006,0.13785
82.861,-0.0006,0.138
82.881,-0.0006,0.13815
82.9,-0.0006,0.13815
82.92,-0.0006,0.13815
82.94,-0.0006,0.13815
82.96,-0.0006,0.13815
82.98,-0.0006,0.1383
83,-0.0006,0.13845
83.02,-0.0006,0.1383
83.04,-0.0006,0.1383
83.06,-0.00045,0.13845
83.081,-0.0006,0.1386
83.1,-0.0006,0.13875
83.12,-0.0006,0.1389
83.14,-0.0006,0.1389
83.16,-0.0006,0.13875
83.181,-0.0006,0.1389
83.201,-0.0006,0.1389
83.221,-0.0006,0.13875
83.24,-0.0006,0.13875
83.26,-0.0006,0.1389
83.28,-0.0006,0.1389
83.3,-0.0006,0.13845
83.32,-0.0006,0.13845
83.34,-0.0006,0.1383
83.36,-0.0006,0.13815
83.38,-0.0006,0.13815
83.4,-0.0006,0.13815
83.42,-0.0006,0.13815
83.44,-0.0006,0.13815
83.46,-0.0006,0.13815
83.48,-0.0006,0.13815
83.5,-0.0006,0.138
83.52,-0.00045,0.138
83.54,-0.00045,0.138
83.561,-0.0006,0.138
83.58,-0.0006,0.138
83.601,-0.0006,0.13815
83.62,-0.0006,0.13815
83.64,-0.0006,0.13815
83.66,-0.0006,0.13815
83.68,-0.0006,0.13815
83.7,-0.0006,0.13815
83.72,-0.0006,0.138
83.74,-0.0006,0.138
83.76,-0.0006,0.13785
83.78,-0.0006,0.138
83.8,-0.0006,0.138
83.82,-0.0006,0.13815
83.841,-0.0006,0.138
83.86,-0.0006,0.13785
83.88,-0.0006,0.13785
83.9,-0.0006,0.13785
83.92,-0.0006,0.13785
83.94,-0.0006,0.138
83.96,-0.0006,0.13815
83.98,-0.0006,0.1383
84,-0.0006,0.1383
84.02,-0.0006,0.13845
84.04,-0.0006,0.1383
84.06,-0.0006,0.13815
84.08,-0.0006,0.13815
84.1,-0.0006,0.1383
84.12,-0.0006,0.13845
84.14,-0.0006,0.13845
84.16,-0.0006,0.1383
84.18,-0.0006,0.13815
84.2,-0.0006,0.1383
84.22,-0.0006,0.1383
84.241,-0.0006,0.13815
84.26,-0.0006,0.1383
84.28,-0.0006,0.1383
84.3,-0.0006,0.1383
84.32,-0.0006,0.1383
84.34,-0.0006,0.1383
84.361,-0.0006,0.13815
84.38,-0.0006,0.1383
84.4,-0.0006,0.13815
84.419,-0.00045,0.13815
84.44,-0.0006,0.13815
84.46,-0.0006,0.138
84.48,-0.0006,0.138
84.5,-0.0006,0.138
84.519,-0.0006,0.13815
84.54,-0.0006,0.13815
84.56,-0.0006,0.1383
84.58,-0.0006,0.13815
84.6,-0.00045,0.13815
84.62,-0.00045,0.1383
84.64,-0.00045,0.138
84.661,-0.0006,0.13815
84.68,-0.0006,0.1383
84.7,-0.0006,0.1383
84.72,-0.00045,0.1383
84.74,-0.0006,0.1383
84.76,-0.0006,0.1383
84.781,-0.0006,0.13815
84.8,-0.0006,0.13815
84.82,-0.0006,0.1383
84.84,-0.0006,0.1383
84.861,-0.0006,0.13815
84.88,-0.00045,0.13815
84.9,-0.0006,0.1383
84.92,-0.00045,0.1383
84.94,-0.0006,0.1383
84.961,-0.0006,0.1383
84.98,-0.0006,0.1383
85,-0.0006,0.13785
85.02,-0.0006,0.138
85.04,-0.0006,0.138
85.06,-0.0006,0.13815
85.079,-0.00045,0.138
85.1,-0.0006,0.138
85.12,-0.0006,0.13815
85.14,-0.0006,0.13815
85.16,-0.0006,0.13785
85.18,-0.0006,0.1377
85.2,-0.00045,0.1377
85.22,-0.0006,0.13785
85.24,-0.0006,0.138
85.259,-0.0006,0.138
85.28,-0.0006,0.13815
85.3,-0.0006,0.138
85.32,-0.00045,0.138
85.34,-0.0006,0.13785
85.359,-0.0006,0.13785
85.38,-0.0006,0.13785
85.4,-0.0006,0.13815
85.42,-0.0006,0.138
85.44,-0.00045,0.1377
85.46,-0.0006,0.1377
85.48,-0.0006,0.13785
85.5,-0.0006,0.1377
85.52,-0.00045,0.1377
85.54,-0.00045,0.13785
85.56,-0.0006,0.1377
85.58,-0.0006,0.13755
85.6,-0.0006,0.13755
85.62,-0.0006,0.13755
85.64,-0.00075,0.1377
85.66,-0.0006,0.1377
85.68,-0.0006,0.13785
85.7,-0.00045,0.138
85.72,-0.00045,0.13785
85.74,-0.00045,0.138
85.761,-0.0006,0.13785
85.781,-0.00075,0.13785
85.8,-0.0006,0.138
85.82,-0.00075,0.138
85.84,-0.00045,0.138
85.86,-0.0006,0.138
85.88,-0.00045,0.138
85.901,-0.00075,0.13785
85.921,-0.0006,0.13785
85.941,-0.00075,0.138
85.96,-0.00075,0.13815
85.98,-0.0006,0.13815
86,-0.0006,0.1383
86.02,-0.0006,0.138
86.041,-0.00075,0.138
86.061,-0.00075,0.13815
86.08,-0.0006,0.138
86.1,-0.0006,0.13815
86.119,-0.00045,0.13815
86.14,-0.0006,0.13815
86.16,-0.00045,0.138
86.18,-0.0006,0.138
86.2,-0.0006,0.138
86.219,-0.0006,0.13815
86.241,-0.00075,0.13815
86.261,-0.00075,0.1383
86.28,-0.00075,0.13815
86.3,-0.00075,0.138
86.32,-0.00045,0.13815
86.341,-0.0006,0.1383
86.36,-0.0006,0.1383
86.38,-0.00075,0.13815
86.4,-0.00075,0.13815
86.42,-0.00045,0.13815
86.441,-0.00105,0.13815
86.46,-0.0006,0.138
86.48,-0.00075,0.13815
86.5,-0.00075,0.1383
86.521,-0.00075,0.13815
86.541,-0.00075,0.13815
86.56,-0.00075,0.13815
86.58,-0.00075,0.1383
86.6,-0.00075,0.13815
86.62,-0.00075,0.13815
86.64,-0.0006,0.1383
86.66,-0.00075,0.1383
86.681,-0.00075,0.13845
86.699,-0.00045,0.1386
86.72,-0.00075,0.1383
86.74,-0.00075,0.1383
86.76,-0.0006,0.13815
86.78,-0.00075,0.13815
86.8,-0.00045,0.13815
86.82,-0.00045,0.13815
86.84,-0.00045,0.13815
86.86,-0.00045,0.1383
86.881,-0.00075,0.13815
86.9,-0.0006,0.138
86.92,-0.0006,0.138
86.939,-0.00045,0.13815
86.96,-0.0006,0.138
86.98,-0.00075,0.13815
87,-0.00075,0.13785
87.02,-0.00075,0.1377
87.04,-0.00075,0.13755
87.06,-0.00045,0.1377
87.079,-0.00045,0.13785
87.1,-0.00075,0.138
87.12,-0.00075,0.138
87.14,-0.0006,0.13785
87.16,-0.00075,0.13785
87.18,-0.00075,0.13785
87.2,-0.00075,0.13785
87.22,-0.00045,0.138
87.24,-0.00045,0.1383
87.259,-0.00045,0.138
87.28,-0.00075,0.138
87.3,-0.00075,0.138
87.32,-0.00075,0.13815
87.34,-0.00075,0.138
87.36,-0.00075,0.13815
87.38,-0.00075,0.13815
87.4,-0.00075,0.13815
87.42,-0.0006,0.13815
87.44,-0.00045,0.1383
87.46,-0.0006,0.13815
87.48,-0.00045,0.13815
87.5,-0.00045,0.1383
87.521,-0.0006,0.1383
87.541,-0.00075,0.138
87.56,-0.00045,0.13785
87.58,-0.0006,0.1377
87.601,-0.00075,0.1377
87.621,-0.00075,0.1377
87.64,-0.00045,0.13785
87.66,-0.0006,0.1377
87.68,-0.00075,0.1377
87.7,-0.00075,0.13785
87.72,-0.00075,0.13785
87.74,-0.00045,0.13785
87.76,-0.00045,0.138
87.781,-0.0006,0.138
87.801,-0.00075,0.138
87.82,-0.0006,0.1383
87.84,-0.00075,0.1383
87.86,-0.00075,0.1383
87.88,-0.0006,0.1383
87.9,-0.00075,0.13845
87.92,-0.0006,0.1383
87.94,-0.00045,0.1383
87.96,-0.00045,0.1383
87.98,-0.0006,0.1383
88.001,-0.0006,0.13815
88.021,-0.00075,0.138
88.04,-0.00075,0.138
88.06,-0.00075,0.138
88.08,-0.00075,0.13815
88.1,-0.00075,0.13815
88.12,-0.00075,0.138
88.14,-0.00075,0.13815
88.16,-0.00075,0.13785
88.18,-0.00075,0.1377
88.2,-0.00075,0.138
88.219,-0.0006,0.13785
88.24,-0.00075,0.13785
88.26,-0.00075,0.1383
88.28,-0.00075,0.13815
88.3,-0.00075,0.13815
88.32,-0.00045,0.13845
88.34,-0.0006,0.1386
88.36,-0.0006,0.13845
88.38,-0.00045,0.1383
88.4,-0.00045,0.1383
88.419,-0.0006,0.1383
88.44,-0.0006,0.13845
88.46,-0.0006,0.13845
88.48,-0.00045,0.1383
88.5,-0.00045,0.13815
88.519,-0.0006,0.13815
88.54,-0.00045,0.13815
88.56,-0.00045,0.13845
88.58,-0.0006,0.13845
88.6,-0.00045,0.13845
88.62,-0.0006,0.1386
88.64,-0.00075,0.13845
88.66,-0.00075,0.13815
88.68,-0.00075,0.1383
88.7,-0.0006,0.1383
88.721,-0.00075,0.1383
88.741,-0.00075,0.1383
88.76,-0.00075,0.13815
88.78,-0.00075,0.13815
88.8,-0.0006,0.13815
88.82,-0.00045,0.138
88.841,-0.00075,0.13785
88.86,-0.0006,0.13785
88.881,-0.00075,0.13785
88.9,-0.0006,0.138
88.92,-0.00045,0.13815
88.94,-0.0006,0.13785
88.96,-0.0006,0.1377
88.98,-0.0006,0.13785
88.999,-0.0006,0.138
89.02,-0.00075,0.13785
89.042,-0.0009,0.13785
89.06,-0.0006,0.13785
89.08,-0.0006,0.13785
89.1,-0.0006,0.138
89.12,-0.0006,0.13785
89.14,-0.0006,0.13785
89.16,-0.0006,0.1377
89.18,-0.00075,0.13785
89.2,-0.00075,0.13785
89.22,-0.0006,0.13785
89.24,-0.00075,0.13785
89.26,-0.00075,0.1377
89.28,-0.0006,0.13755
89.3,-0.00045,0.13755
89.32,-0.00045,0.13755
89.34,-0.00075,0.1377
89.36,-0.0006,0.13785
89.38,-0.0006,0.138
89.4,-0.00075,0.138
89.42,-0.00075,0.1377
89.44,-0.0006,0.138
89.46,-0.0006,0.138
89.481,-0.00075,0.13785
89.5,-0.0006,0.138
89.52,-0.00075,0.13785
89.54,-0.00075,0.13785
89.56,-0.0006,0.138
89.58,-0.00045,0.13785
89.6,-0.00075,0.13785
89.62,-0.00075,0.138
89.64,-0.0006,0.138
89.66,-0.00075,0.13785
89.68,-0.0006,0.13785
89.7,-0.00075,0.13785
89.72,-0.00075,0.13785
89.74,-0.00045,0.1377
89.76,-0.0006,0.138
89.78,-0.0006,0.13815
89.802,-0.0009,0.138
89.821,-0.0006,0.13815
89.841,-0.0006,0.138
89.86,-0.00045,0.13815
89.88,-0.0006,0.13815
89.9,-0.0006,0.1383
89.921,-0.0006,0.13815
89.94,-0.0006,0.1383
89.96,-0.0006,0.13815
89.98,-0.0006,0.13815
90,-0.0006,0.13815
90.02,-0.0006,0.13815
90.04,-0.0006,0.13815
90.06,-0.0006,0.13815
90.08,-0.0006,0.138
90.1,-0.0006,0.13815
90.12,-0.0006,0.13815
90.139,-0.0006,0.13815
90.16,-0.0006,0.13815
90.18,-0.00075,0.13785
90.2,-0.0006,0.13785
90.22,-0.0006,0.13815
90.24,-0.0006,0.13815
90.26,-0.0006,0.138
90.28,-0.0006,0.138
90.3,-0.0006,0.138
90.32,-0.0006,0.138
90.339,-0.0006,0.138
90.36,-0.0006,0.13815
90.38,-0.0006,0.1383
90.4,-0.00045,0.13815
90.42,-0.00045,0.13815
90.44,-0.0006,0.138
90.46,-0.0006,0.13815
90.48,-0.00045,0.1383
90.5,-0.0006,0.1383
90.52,-0.00045,0.13815
90.541,-0.0009,0.138
90.56,-0.00075,0.138
90.58,-0.0006,0.138
90.6,-0.0006,0.138
90.62,-0.0006,0.13785
90.64,-0.0006,0.13785
90.66,-0.0006,0.138
90.68,-0.0006,0.138
90.7,-0.0006,0.138
90.721,-0.00075,0.13785
90.74,-0.0006,0.138
90.76,-0.0006,0.13785
90.78,-0.0006,0.138
90.801,-0.0009,0.13785
90.819,-0.0006,0.13785
90.84,-0.00075,0.13785
90.86,-0.00075,0.1377
90.88,-0.0006,0.138
90.9,-0.00045,0.13815
90.922,-0.00105,0.1377
90.94,-0.00075,0.13785
90.96,-0.00075,0.13785
90.98,-0.00075,0.13815
91,-0.00075,0.138
91.02,-0.00075,0.138
91.04,-0.0006,0.138
91.06,-0.00075,0.13785
91.08,-0.00075,0.1377
91.099,-0.00045,0.138
91.12,-0.0006,0.13815
91.14,-0.0006,0.13785
91.16,-0.0006,0.138
91.18,-0.0006,0.13815
91.2,-0.0006,0.13815
91.221,-0.00075,0.13815
91.24,-0.00075,0.13815
91.26,-0.00075,0.13815
91.28,-0.00075,0.13815
91.299,-0.0006,0.13815
91.32,-0.0006,0.138
91.34,-0.00075,0.13815
91.36,-0.00075,0.13815
91.38,-0.0006,0.1383
91.4,-0.0006,0.13815
91.42,-0.0006,0.13815
91.44,-0.0006,0.13815
91.46,-0.0006,0.138
91.479,-0.0006,0.13815
91.5,-0.0006,0.13815
91.52,-0.0006,0.13815
91.541,-0.00075,0.13815
91.56,-0.00075,0.138
91.58,-0.0006,0.13815
91.6,-0.00075,0.13815
91.62,-0.00075,0.1383
91.64,-0.00075,0.1383
91.66,-0.0006,0.13845
91.681,-0.00075,0.13845
91.7,-0.0006,0.1383
91.72,-0.0006,0.1383
91.74,-0.00075,0.1383
91.76,-0.0006,0.13845
91.78,-0.0006,0.1383
91.8,-0.0006,0.13845
91.82,-0.00075,0.1386
91.84,-0.00075,0.1386
91.86,-0.00075,0.13845
91.88,-0.00075,0.13845
91.9,-0.0006,0.13845
91.92,-0.00075,0.13845
91.94,-0.0006,0.13845
91.96,-0.00075,0.13845
91.98,-0.00075,0.13815
92,-0.0006,0.13815
92.02,-0.0006,0.13815
92.04,-0.0006,0.13845
92.06,-0.0006,0.13845
92.079,-0.0006,0.1383
92.1,-0.0006,0.13845
92.12,-0.0006,0.13845
92.14,-0.0006,0.13845
92.16,-0.0006,0.13845
92.18,-0.0006,0.1383
92.2,-0.0006,0.13815
92.221,-0.00075,0.13845
92.24,-0.00075,0.1383
92.26,-0.00075,0.1383
92.28,-0.00075,0.1383
92.3,-0.0006,0.13815
92.32,-0.0006,0.13845
92.34,-0.0006,0.13845
92.36,-0.0006,0.13845
92.38,-0.0006,0.13815
92.399,-0.0006,0.13815
92.42,-0.00075,0.1383
92.44,-0.00075,0.1383
92.46,-0.00075,0.1383
92.48,-0.0006,0.13845
92.5,-0.0006,0.1383
92.521,-0.00075,0.13845
92.54,-0.0006,0.13815
92.56,-0.0006,0.13815
92.579,-0.0006,0.1383
92.6,-0.0006,0.13845
92.62,-0.0006,0.1383
92.64,-0.0006,0.1383
92.66,-0.0006,0.13815
92.679,-0.0006,0.138
92.7,-0.0006,0.138
92.72,-0.0006,0.138
92.74,-0.0006,0.138
92.761,-0.00075,0.13815
92.78,-0.00075,0.1383
92.8,-0.00075,0.13815
92.82,-0.00075,0.13815
92.84,-0.00075,0.1383
92.86,-0.0006,0.1383
92.88,-0.0006,0.1383
92.9,-0.0006,0.13845
92.92,-0.0006,0.1383
92.94,-0.0006,0.13845
92.96,-0.0006,0.1386
92.98,-0.00075,0.1386
93,-0.00075,0.1386
93.02,-0.00075,0.1386
93.04,-0.0006,0.13875
93.059,-0.0006,0.13875
93.08,-0.0006,0.1386
93.1,-0.00075,0.1386
93.12,-0.00075,0.1386
93.14,-0.00075,0.1386
93.16,-0.0006,0.1386
93.18,-0.0006,0.1383
93.2,-0.0006,0.1383
93.22,-0.0006,0.13815
93.24,-0.0006,0.1383
93.26,-0.0006,0.1383
93.28,-0.0006,0.1383
93.301,-0.00075,0.13815
93.32,-0.00075,0.13845
93.34,-0.00075,0.1383
93.36,-0.00075,0.13845
93.38,-0.00075,0.1386
93.4,-0.00075,0.1386
93.42,-0.00075,0.1386
93.439,-0.0006,0.1383
93.46,-0.00075,0.1383
93.48,-0.00075,0.13815
93.5,-0.00075,0.138
93.52,-0.00075,0.138
93.54,-0.0006,0.13815
93.56,-0.0006,0.138
93.58,-0.0006,0.13815
93.6,-0.0006,0.1383
93.62,-0.0006,0.13845
93.639,-0.0006,0.13845
93.66,-0.0006,0.1383
93.679,-0.0006,0.138
93.7,-0.0006,0.138
93.721,-0.00075,0.138
93.74,-0.00045,0.138
93.76,-0.0006,0.13815
93.78,-0.0006,0.13815
93.8,-0.0006,0.13815
93.82,-0.0006,0.13815
93.841,-0.00075,0.13815
93.86,-0.00075,0.138
93.88,-0.00075,0.138
93.9,-0.00075,0.138
93.92,-0.00075,0.13815
93.94,-0.00075,0.13815
93.96,-0.00075,0.13815
93.981,-0.0009,0.13815
94,-0.00045,0.13815
94.021,-0.00075,0.1383
94.04,-0.0006,0.1383
94.06,-0.0006,0.13845
94.08,-0.0006,0.13845
94.1,-0.0006,0.1383
94.12,-0.0006,0.1383
94.141,-0.00075,0.1383
94.159,-0.0006,0.13845
94.18,-0.00075,0.1383
94.199,-0.0006,0.13815
94.22,-0.00075,0.1383
94.239,-0.0006,0.1383
94.26,-0.00075,0.13815
94.281,-0.00075,0.1383
94.3,-0.00075,0.13815
94.32,-0.00075,0.1383
94.34,-0.00075,0.1383
94.36,-0.0006,0.13845
94.38,-0.0006,0.13845
94.4,-0.0006,0.1383
94.42,-0.0006,0.1383
94.44,-0.0006,0.13815
94.459,-0.0006,0.13815
94.48,-0.0006,0.138
94.5,-0.0006,0.138
94.52,-0.0006,0.138
94.54,-0.0006,0.13815
94.559,-0.00045,0.1383
94.58,-0.00075,0.13845
94.6,-0.00075,0.1383
94.62,-0.00075,0.13815
94.64,-0.0006,0.1383
94.66,-0.0006,0.1383
94.68,-0.0006,0.1383
94.7,-0.0006,0.138
94.72,-0.0006,0.1377
94.739,-0.0006,0.1377
94.76,-0.0006,0.13785
94.78,-0.0006,0.13785
94.799,-0.00045,0.13785
94.82,-0.0006,0.13785
94.84,-0.0006,0.13815
94.86,-0.00075,0.13815
94.88,-0.00075,0.1383
94.9,-0.00075,0.13815
94.92,-0.00075,0.13815
94.94,-0.0006,0.13845
94.96,-0.00075,0.13815
94.981,-0.0009,0.13815
95,-0.00075,0.13815
95.02,-0.00075,0.13815
95.041,-0.00075,0.13815
95.061,-0.00075,0.13815
95.08,-0.00075,0.1383
95.1,-0.00075,0.13845
95.12,-0.00075,0.1383
95.14,-0.00075,0.13815
95.16,-0.00075,0.1383
95.18,-0.0006,0.13815
95.2,-0.0006,0.138
95.219,-0.00045,0.13785
95.24,-0.0006,0.13815
95.26,-0.0006,0.1383
95.28,-0.0006,0.1383
95.301,-0.00075,0.1383
95.32,-0.0006,0.13815
95.34,-0.0006,0.1383
95.361,-0.00075,0.1383
95.38,-0.00075,0.1383
95.4,-0.00075,0.13815
95.42,-0.00075,0.1383
95.44,-0.00075,0.1383
95.46,-0.00075,0.1383
95.48,-0.00075,0.1383
95.501,-0.00075,0.13815
95.52,-0.00075,0.1383
95.54,-0.0006,0.13845
95.56,-0.0006,0.1383
95.58,-0.0006,0.13815
95.6,-0.0006,0.13815
95.62,-0.0006,0.13815
95.64,-0.0006,0.13815
95.66,-0.0006,0.13845
95.68,-0.0006,0.13815
95.699,-0.00045,0.13815
95.72,-0.0006,0.138
95.74,-0.0006,0.138
95.76,-0.0006,0.138
95.78,-0.0006,0.138
95.8,-0.0006,0.13785
95.819,-0.0006,0.138
95.84,-0.00075,0.13815
95.86,-0.0006,0.13815
95.88,-0.0006,0.13815
95.899,-0.0006,0.1383
95.92,-0.00075,0.1383
95.94,-0.0006,0.138
95.96,-0.0006,0.138
95.98,-0.00075,0.138
96,-0.00075,0.1383
96.02,-0.0006,0.1383
96.04,-0.0006,0.1383
96.06,-0.00075,0.1383
96.08,-0.0006,0.13845
96.1,-0.0006,0.1383
96.121,-0.00075,0.138
96.139,-0.00045,0.13785
96.16,-0.0006,0.13815
96.179,-0.0006,0.13815
96.2,-0.00075,0.13815
96.22,-0.00075,0.13815
96.24,-0.00075,0.13815
96.26,-0.00075,0.13815
96.28,-0.0006,0.13815
96.299,-0.00045,0.13815
96.32,-0.00075,0.13785
96.34,-0.0006,0.138
96.361,-0.00075,0.138
96.381,-0.00075,0.13785
96.401,-0.00075,0.13785
96.42,-0.00075,0.1377
96.44,-0.00075,0.13785
96.46,-0.0006,0.138
96.48,-0.0006,0.13815
96.5,-0.00075,0.13815
96.52,-0.00075,0.138
96.54,-0.0006,0.13785
96.56,-0.00075,0.138
96.58,-0.0006,0.13785
96.6,-0.00075,0.13785
96.621,-0.00075,0.13815
96.641,-0.00075,0.138
96.66,-0.00075,0.13785
96.68,-0.00075,0.138
96.7,-0.00075,0.138
96.72,-0.00075,0.13785
96.74,-0.00075,0.13785
96.759,-0.00045,0.1377
96.78,-0.00075,0.1377
96.799,-0.00045,0.1377
96.82,-0.0006,0.138
96.84,-0.0006,0.13785
96.86,-0.00075,0.1377
96.88,-0.0009,0.1377
96.9,-0.00075,0.13785
96.92,-0.00075,0.13785
96.94,-0.00075,0.13785
96.96,-0.0009,0.138
96.981,-0.0009,0.138
97,-0.00075,0.13815
97.02,-0.0006,0.13815
97.04,-0.0006,0.13815
97.06,-0.0006,0.1383
97.08,-0.00075,0.1383
97.1,-0.00075,0.1383
97.12,-0.00075,0.13845
97.139,-0.0006,0.13845
97.16,-0.0006,0.13815
97.18,-0.00075,0.1383
97.2,-0.00075,0.1386
97.22,-0.00075,0.13845
97.239,-0.00045,0.1383
97.26,-0.00075,0.1383
97.28,-0.00075,0.13815
97.3,-0.00075,0.138
97.32,-0.0009,0.13815
97.34,-0.00075,0.1383
97.36,-0.00075,0.13815
97.38,-0.0009,0.13815
97.399,-0.00075,0.1383
97.42,-0.00075,0.13815
97.44,-0.00075,0.1383
97.46,-0.00075,0.13845
97.48,-0.00075,0.1383
97.5,-0.00075,0.13815
97.52,-0.00075,0.1383
97.541,-0.00075,0.1383
97.56,-0.00075,0.13845
97.58,-0.00075,0.13845
97.601,-0.00105,0.1383
97.619,-0.00075,0.1383
97.64,-0.0009,0.1383
97.66,-0.0009,0.1383
97.68,-0.0009,0.13845
97.7,-0.00075,0.1386
97.719,-0.0006,0.13845
97.74,-0.00075,0.13845
97.76,-0.00075,0.1383
97.78,-0.0009,0.138
97.8,-0.0009,0.13785
97.82,-0.0006,0.138
97.841,-0.00075,0.13785
97.861,-0.00075,0.138
97.88,-0.00075,0.13815
97.899,-0.00075,0.13815
97.92,-0.00075,0.13815
97.94,-0.00075,0.13815
97.961,-0.00075,0.13815
97.98,-0.0009,0.138
98,-0.0009,0.13815
98.02,-0.0009,0.138
98.04,-0.0009,0.1377
98.06,-0.0009,0.13785
98.08,-0.0009,0.13785
98.099,-0.00075,0.13785
98.12,-0.0009,0.138
98.14,-0.0009,0.138
98.16,-0.0009,0.13815
98.18,-0.0009,0.1383
98.2,-0.0006,0.1383
98.22,-0.00075,0.1383
98.241,-0.00105,0.13815
98.26,-0.0006,0.13815
98.28,-0.00075,0.1383
98.3,-0.0009,0.1383
98.32,-0.0009,0.1383
98.34,-0.0009,0.1383
98.36,-0.0009,0.1383
98.38,-0.0009,0.1383
98.4,-0.0006,0.1383
98.42,-0.0006,0.13815
98.44,-0.0006,0.13845
98.46,-0.0006,0.1383
98.48,-0.0006,0.1383
98.501,-0.0009,0.13815
98.521,-0.0009,0.1386
98.54,-0.0009,0.13845
98.56,-0.0009,0.1386
98.58,-0.0009,0.1386
98.6,-0.0009,0.13845
98.62,-0.0009,0.1383
98.64,-0.0009,0.1383
98.66,-0.0009,0.13845
98.679,-0.00075,0.13845
98.7,-0.00075,0.13845
98.72,-0.00075,0.13845
98.74,-0.00075,0.13845
98.76,-0.0006,0.13845
98.779,-0.00075,0.1383
98.8,-0.0009,0.13815
98.82,-0.0009,0.13845
98.84,-0.0009,0.13845
98.86,-0.0009,0.13845
98.88,-0.00075,0.1383
98.9,-0.00075,0.1383
98.92,-0.0009,0.13815
98.94,-0.00075,0.1383
98.96,-0.00075,0.1383
98.98,-0.0009,0.138
99,-0.0009,0.138
99.02,-0.0009,0.13815
99.04,-0.0009,0.13815
99.06,-0.0009,0.13815
99.08,-0.0009,0.13845
99.1,-0.0009,0.13845
99.12,-0.0009,0.1386
99.14,-0.00075,0.13875
99.159,-0.00075,0.13845
99.18,-0.00075,0.13845
99.2,-0.00075,0.13845
99.22,-0.00075,0.13845
99.24,-0.00075,0.13845
99.26,-0.00075,0.1383
99.28,-0.00075,0.1383
99.3,-0.00075,0.13845
99.32,-0.00075,0.1383
99.34,-0.00075,0.1383
99.359,-0.0006,0.13845
99.38,-0.00075,0.13815
99.4,-0.00075,0.13815
99.42,-0.00075,0.1383
99.441,-0.0009,0.13815
99.461,-0.0009,0.13815
99.48,-0.0009,0.13815
99.501,-0.0012,0.13815
99.52,-0.0009,0.13815
99.54,-0.00105,0.13815
99.56,-0.0009,0.13815
99.58,-0.00105,0.138
99.6,-0.0009,0.138
99.62,-0.0009,0.138
99.639,-0.00075,0.138
99.66,-0.0009,0.138
99.68,-0.0009,0.13815
99.7,-0.00075,0.13815
99.72,-0.00075,0.1383
99.74,-0.00075,0.1383
99.76,-0.00075,0.1383
99.78,-0.00075,0.13815
99.8,-0.00075,0.1383
99.821,-0.0009,0.1383
99.84,-0.00105,0.1383
99.86,-0.0009,0.1383
99.88,-0.00105,0.13845
99.9,-0.00075,0.1386
99.92,-0.00075,0.1386
99.94,-0.00075,0.1386
99.96,-0.00075,0.13845
99.98,-0.00075,0.1383
100,-0.00075,0.1383
100.019,-0.0006,0.1383
100.04,-0.0009,0.13845
100.06,-0.00075,0.13845
100.08,-0.0009,0.13845
100.1,-0.00075,0.1386
100.12,-0.00105,0.13875
100.14,-0.00105,0.13875
100.16,-0.00105,0.1386
100.18,-0.00075,0.13845
100.2,-0.0009,0.13845
100.22,-0.00075,0.1383
100.24,-0.00075,0.1383
100.26,-0.00075,0.1383
100.28,-0.00075,0.1383
100.3,-0.00075,0.1386
100.319,-0.0006,0.1383
100.341,-0.0009,0.1383
100.36,-0.00105,0.1383
100.38,-0.00075,0.1383
100.4,-0.00075,0.13845
100.419,-0.00075,0.1383
100.44,-0.00105,0.1383
100.46,-0.00105,0.13815
100.48,-0.00105,0.138
100.499,-0.00075,0.13815
100.52,-0.00105,0.13815
100.54,-0.00075,0.13815
100.559,-0.00075,0.138
100.58,-0.0012,0.13785
100.6,-0.00105,0.138
100.62,-0.00075,0.13785
100.64,-0.00075,0.13785
100.66,-0.0009,0.13785
100.68,-0.0009,0.138
100.7,-0.00075,0.138
100.72,-0.00075,0.138
100.74,-0.00075,0.13815
100.761,-0.00105,0.1377
100.781,-0.0009,0.13785
100.8,-0.0009,0.13785
100.82,-0.00105,0.1377
100.843,-0.0027,0.1377
100.86,-0.0009,0.13785
100.88,-0.00105,0.13785
100.9,-0.0009,0.13785
100.92,-0.00075,0.13785
100.94,-0.00075,0.13785
100.96,-0.0027,0.13785
100.98,-0.00075,0.13785
100.999,-0.00075,0.13815
101.02,-0.0009,0.13815
101.04,-0.00075,0.138
101.06,-0.0009,0.138
101.08,-0.00075,0.13815
101.101,-0.00105,0.138
101.121,-0.00105,0.138
101.14,-0.0009,0.138
101.16,-0.0009,0.13815
101.18,-0.00105,0.13815
101.2,-0.00105,0.13815
101.22,-0.00135,0.13815
101.24,-0.0009,0.1386
101.26,-0.00105,0.1386
101.281,-0.0015,0.13845
101.3,-0.00105,0.1383
101.32,-0.00105,0.1383
101.34,-0.00105,0.13845
101.36,-0.0009,0.13845
101.38,-0.0009,0.1383
101.4,-0.0009,0.1383
101.42,-0.0009,0.13815
101.44,-0.0009,0.138
101.46,-0.0009,0.13785
101.48,-0.0009,0.13785
101.5,-0.0009,0.138
101.52,-0.00105,0.138
101.54,-0.00105,0.13815
101.56,-0.00105,0.138
101.58,-0.00105,0.138
101.601,-0.00105,0.13815
101.62,-0.00105,0.13815
101.64,-0.00105,0.13815
101.66,-0.0009,0.13815
101.68,-0.0009,0.13815
101.7,-0.0009,0.1383
101.72,-0.0009,0.1383
101.74,-0.0009,0.13815
101.76,-0.0009,0.13815
101.78,-0.0009,0.13815
101.8,-0.0009,0.1383
101.821,-0.00105,0.13845
101.84,-0.00105,0.13845
101.86,-0.00105,0.13845
101.88,-0.0009,0.1383
101.899,-0.00075,0.1383
101.92,-0.0009,0.138
101.939,-0.0009,0.138
101.96,-0.00105,0.1377
101.98,-0.00105,0.13785
102,-0.0009,0.13815
102.02,-0.0009,0.1383
102.04,-0.0009,0.138
102.06,-0.00105,0.138
102.08,-0.0009,0.13815
102.1,-0.0009,0.138
102.12,-0.0009,0.138
102.139,-0.00075,0.138
102.16,-0.0009,0.138
102.18,-0.00105,0.13815
102.2,-0.0009,0.13815
102.221,-0.00105,0.13815
102.239,-0.0009,0.13815
102.26,-0.00105,0.138
102.28,-0.0009,0.138
102.3,-0.0009,0.138
102.32,-0.0009,0.13815
102.339,-0.00075,0.13815
102.36,-0.0009,0.138
102.38,-0.00105,0.13755
102.4,-0.0009,0.1374
102.42,-0.0009,0.1374
102.44,-0.0009,0.13785
102.461,-0.0012,0.13785
102.48,-0.0033,0.13785
102.5,-0.0012,0.13785
102.52,-0.0012,0.13815
102.54,-0.0012,0.13815
102.56,-0.0012,0.13815
102.58,-0.0012,0.1383
102.6,-0.0012,0.13815
102.62,-0.0009,0.138
102.64,-0.00105,0.138
102.66,-0.0009,0.13815
102.68,-0.0009,0.1383
102.7,-0.00105,0.13845
102.72,-0.00105,0.13845
102.739,-0.0009,0.13845
102.76,-0.00105,0.1386
102.78,-0.00105,0.13845
102.801,-0.0012,0.13845
102.82,-0.00105,0.1383
102.839,-0.0009,0.1383
102.86,-0.0012,0.13845
102.88,-0.0012,0.13845
102.9,-0.0012,0.13815
102.92,-0.0012,0.138
102.94,-0.0009,0.138
102.96,-0.00105,0.13815
102.981,-0.0012,0.1383
103.001,-0.00135,0.1383
103.02,-0.0012,0.138
103.04,-0.0012,0.13815
103.06,-0.0012,0.1383
103.08,-0.0012,0.1383
103.1,-0.0012,0.13815
103.119,-0.0009,0.13815
103.14,-0.0009,0.13815
103.16,-0.00105,0.1383
103.18,-0.0012,0.1383
103.2,-0.0012,0.13815
103.22,-0.0012,0.138
103.24,-0.0009,0.138
103.261,-0.00135,0.1377
103.28,-0.0009,0.13785
103.3,-0.00105,0.13785
103.32,-0.00105,0.138
103.34,-0.00135,0.138
103.36,-0.0012,0.138
103.38,-0.0012,0.1383
103.4,-0.00105,0.13815
103.42,-0.00135,0.138
103.44,-0.0012,0.13815
103.46,-0.00105,0.1383
103.48,-0.0009,0.1383
103.501,-0.0012,0.138
103.519,-0.00075,0.13845
103.541,-0.00135,0.1386
103.56,-0.00135,0.1386
103.58,-0.00135,0.13845
103.6,-0.00135,0.1383
103.62,-0.00135,0.13815
103.64,-0.00135,0.13815
103.66,-0.00135,0.138
103.68,-0.00135,0.13815
103.7,-0.00135,0.1383
103.72,-0.00135,0.1383
103.74,-0.00135,0.1383
103.76,-0.00135,0.13845
103.78,-0.00105,0.13815
103.8,-0.00105,0.13815
103.82,-0.00105,0.138
103.84,-0.0009,0.13785
103.86,-0.00105,0.13815
103.88,-0.00105,0.13815
103.9,-0.00105,0.138
103.92,-0.00105,0.13815
103.94,-0.00105,0.13815
103.96,-0.00105,0.1383
103.981,-0.00135,0.13815
104,-0.00135,0.13815
104.02,-0.00105,0.13815
104.04,-0.00105,0.138
104.06,-0.00105,0.1377
104.08,-0.00105,0.13785
104.1,-0.00105,0.138
104.12,-0.00105,0.138
104.14,-0.00105,0.13785
104.161,-0.0015,0.1377
104.18,-0.0015,0.1377
104.2,-0.0015,0.1377
104.22,-0.0015,0.13755
104.24,-0.0015,0.1377
104.26,-0.00105,0.138
104.28,-0.00105,0.138
104.3,-0.00105,0.138
104.32,-0.00105,0.13815
104.34,-0.00105,0.138
104.36,-0.00105,0.138
104.38,-0.00105,0.138
104.4,-0.00105,0.13815
104.42,-0.00105,0.138
104.44,-0.00105,0.13785
104.46,-0.00105,0.13815
104.48,-0.0012,0.138
104.501,-0.00165,0.138
104.52,-0.00165,0.13785
104.54,-0.00165,0.13785
104.56,-0.00165,0.1377
104.58,-0.00165,0.1377
104.6,-0.0018,0.1377
104.62,-0.00105,0.1377
104.641,-0.0018,0.13785
104.66,-0.00105,0.13785
104.68,-0.00105,0.13755
104.699,-0.0012,0.1377
104.72,-0.0018,0.1377
104.74,-0.0012,0.13785
104.76,-0.00105,0.138
104.78,-0.00105,0.138
104.8,-0.0012,0.138
104.82,-0.00105,0.13815
104.84,-0.0012,0.138
104.86,-0.0012,0.13785
104.88,-0.0012,0.13785
104.9,-0.00105,0.13815
104.921,-0.0018,0.13815
104.94,-0.00195,0.13815
104.96,-0.00105,0.13815
104.98,-0.00195,0.138
105,-0.0018,0.13815
105.02,-0.00195,0.13815
105.04,-0.00195,0.13815
105.06,-0.00195,0.13815
105.08,-0.00195,0.13815
105.1,-0.00195,0.1383
105.12,-0.00195,0.13815
105.14,-0.00195,0.138
105.16,-0.00195,0.138
105.18,-0.0012,0.138
105.2,-0.0012,0.138
105.22,-0.0012,0.13815
105.24,-0.0012,0.1383
105.26,-0.0012,0.1383
105.28,-0.0012,0.1386
105.301,-0.0021,0.13845
105.32,-0.0021,0.1383
105.34,-0.00195,0.1383
105.36,-0.0021,0.1383
105.38,-0.0021,0.1383
105.4,-0.0021,0.13845
105.42,-0.0012,0.13845
105.44,-0.0012,0.13845
105.46,-0.0012,0.13845
105.48,-0.0012,0.1383
105.5,-0.0012,0.13845
105.521,-0.0021,0.13845
105.541,-0.00225,0.13815
105.561,-0.0021,0.13815
105.58,-0.0021,0.13815
105.6,-0.00225,0.138
105.62,-0.00225,0.13815
105.64,-0.0021,0.138
105.66,-0.00225,0.13815
105.679,-0.00135,0.13815
105.7,-0.00225,0.138
105.72,-0.00225,0.138
105.74,-0.00225,0.138
105.76,-0.0021,0.13785
105.78,-0.00225,0.138
105.8,-0.00225,0.138
105.82,-0.0012,0.138
105.84,-0.0012,0.13785
105.86,-0.0012,0.13785
105.879,-0.0012,0.13785
105.9,-0.0024,0.1377
105.92,-0.0024,0.13755
105.94,-0.0024,0.1377
105.96,-0.00225,0.138
105.981,-0.0024,0.13785
106,-0.0024,0.13785
106.02,-0.0024,0.138
106.04,-0.0024,0.138
106.06,-0.0024,0.138
106.08,-0.00225,0.1383
106.1,-0.0024,0.1383
106.12,-0.0024,0.1383
106.14,-0.0024,0.1383
106.159,-0.0012,0.1383
106.18,-0.0024,0.1383
106.2,-0.0024,0.13815
106.22,-0.0024,0.138
106.24,-0.00255,0.13815
106.26,-0.00255,0.13815
106.28,-0.0024,0.13815
106.3,-0.0012,0.13815
106.32,-0.0012,0.13815
106.34,-0.00135,0.1383
106.36,-0.00135,0.1383
106.381,-0.00255,0.1383
106.4,-0.00255,0.13815
106.42,-0.00255,0.13815
106.44,-0.00255,0.13815
106.46,-0.00135,0.13815
106.48,-0.00135,0.1383
106.5,-0.00135,0.13815
106.52,-0.00135,0.13815
106.54,-0.00135,0.138
106.561,-0.00255,0.13785
106.58,-0.00255,0.13785
106.601,-0.0036,0.138
106.62,-0.00255,0.138
106.639,-0.00135,0.13815
106.66,-0.00255,0.13815
106.681,-0.0036,0.1383
106.7,-0.0027,0.1383
106.72,-0.0027,0.13815
106.74,-0.00135,0.13815
106.76,-0.0015,0.1383
106.78,-0.00135,0.1383
106.8,-0.00135,0.13815
106.82,-0.00135,0.13815
106.839,-0.00105,0.138
106.86,-0.00135,0.13785
106.88,-0.00135,0.138
106.9,-0.00135,0.13785
106.92,-0.00135,0.138
106.939,-0.00105,0.13815
106.96,-0.00135,0.13815
106.98,-0.00135,0.138
107,-0.00135,0.13815
107.02,-0.0015,0.1383
107.039,-0.00105,0.13845
107.06,-0.00135,0.1383
107.08,-0.0015,0.13815
107.101,-0.00285,0.13845
107.121,-0.0027,0.1383
107.14,-0.0015,0.13845
107.161,-0.00285,0.13875
107.181,-0.00285,0.1386
107.2,-0.00285,0.13845
107.22,-0.003,0.1386
107.24,-0.0015,0.1386
107.26,-0.0015,0.13845
107.28,-0.0015,0.13845
107.3,-0.0015,0.1383
107.32,-0.0015,0.1383
107.34,-0.0015,0.1383
107.36,-0.0015,0.1383
107.38,-0.0015,0.13815
107.401,-0.00285,0.138
107.421,-0.00285,0.138
107.441,-0.003,0.138
107.46,-0.003,0.1383
107.48,-0.003,0.13815
107.5,-0.003,0.13815
107.519,-0.0015,0.13845
107.54,-0.003,0.13845
107.56,-0.003,0.1383
107.58,-0.003,0.1383
107.6,-0.003,0.1383
107.62,-0.003,0.13815
107.64,-0.003,0.13815
107.66,-0.003,0.13815
107.68,-0.003,0.13815
107.7,-0.00165,0.1383
107.72,-0.00315,0.1383
107.74,-0.0015,0.138
107.76,-0.00165,0.13785
107.78,-0.00165,0.13815
107.8,-0.00165,0.13815
107.819,-0.00105,0.13815
107.84,-0.00165,0.13815
107.86,-0.00165,0.13845
107.88,-0.00165,0.1383
107.901,-0.00315,0.1383
107.921,-0.00315,0.13815
107.94,-0.003,0.138
107.96,-0.00315,0.138
107.98,-0.00315,0.138
108.001,-0.0036,0.13815
108.019,-0.00165,0.138
108.04,-0.00315,0.13815
108.061,-0.00375,0.13815
108.081,-0.0036,0.13815
108.1,-0.0033,0.1383
108.12,-0.0018,0.13815
108.14,-0.00165,0.138
108.16,-0.0018,0.13785
108.18,-0.00165,0.13785
108.2,-0.00165,0.13785
108.22,-0.0018,0.13815
108.24,-0.0018,0.1383
108.26,-0.0018,0.138
108.281,-0.0033,0.13785
108.301,-0.00315,0.13785
108.32,-0.0033,0.138
108.34,-0.0018,0.13815
108.36,-0.0018,0.13815
108.38,-0.0018,0.138
108.4,-0.0018,0.138
108.421,-0.0033,0.13785
108.441,-0.0033,0.138
108.46,-0.0018,0.138
108.48,-0.00195,0.138
108.5,-0.00195,0.138
108.519,-0.0012,0.138
108.54,-0.00195,0.13815
108.56,-0.00195,0.138
108.581,-0.0033,0.13815
108.601,-0.0033,0.138
108.62,-0.00195,0.138
108.64,-0.00195,0.13815
108.66,-0.00195,0.1383
108.68,-0.00195,0.1383
108.7,-0.00195,0.13845
108.72,-0.00195,0.13845
108.74,-0.00195,0.13815
108.76,-0.00195,0.138
108.78,-0.0021,0.13815
108.8,-0.0021,0.13815
108.821,-0.00345,0.13815
108.841,-0.00345,0.13815
108.86,-0.00195,0.13815
108.881,-0.00345,0.13815
108.901,-0.00345,0.13815
108.92,-0.00345,0.13815
108.94,-0.00345,0.13815
108.96,-0.0033,0.138
108.98,-0.00345,0.138
109,-0.00345,0.13785
109.02,-0.0033,0.1377
109.04,-0.0033,0.1377
109.06,-0.0021,0.138
109.08,-0.00195,0.138
109.101,-0.00345,0.138
109.12,-0.0021,0.138
109.14,-0.0021,0.138
109.161,-0.00345,0.138
109.18,-0.0021,0.13785
109.2,-0.00225,0.13785
109.22,-0.0021,0.138
109.24,-0.0021,0.13785
109.26,-0.00345,0.138
109.28,-0.0033,0.13785
109.3,-0.00345,0.13785
109.32,-0.00345,0.13815
109.34,-0.0033,0.13815
109.36,-0.00345,0.138
109.38,-0.0033,0.138
109.4,-0.00225,0.138
109.42,-0.00225,0.1377
109.44,-0.00225,0.1377
109.461,-0.00345,0.13785
109.48,-0.00225,0.138
109.5,-0.00225,0.138
109.521,-0.00345,0.13815
109.541,-0.0033,0.13815
109.561,-0.0036,0.13815
109.58,-0.00345,0.1383
109.6,-0.0036,0.138
109.62,-0.0036,0.138
109.64,-0.0036,0.138
109.66,-0.0033,0.13785
109.68,-0.00345,0.13785
109.7,-0.0036,0.13785
109.721,-0.00345,0.13785
109.74,-0.00225,0.13785
109.761,-0.0036,0.138
109.78,-0.0024,0.13785
109.8,-0.0024,0.1377
109.82,-0.0024,0.13755
109.84,-0.0024,0.1377
109.86,-0.0024,0.13785
109.88,-0.0024,0.1377
109.9,-0.00255,0.1377
109.92,-0.0024,0.13785
109.941,-0.00345,0.1377
109.96,-0.0036,0.1377
109.98,-0.0036,0.13755
110,-0.0036,0.13755
110.02,-0.00345,0.1377
110.04,-0.0036,0.13785
110.06,-0.0036,0.13785
110.079,-0.0024,0.1377
110.1,-0.0036,0.1377
110.12,-0.00345,0.13785
110.14,-0.0036,0.138
110.16,-0.00375,0.13785
110.18,-0.0024,0.1374
110.2,-0.00255,0.13755
110.22,-0.00255,0.13755
110.24,-0.00255,0.13785
110.26,-0.0024,0.13785
110.279,-0.00255,0.13785
110.3,-0.00375,0.13785
110.321,-0.0033,0.13815
110.34,-0.00345,0.1383
110.36,-0.0036,0.1383
110.38,-0.0036,0.13815
110.4,-0.00255,0.13815
110.42,-0.0027,0.13815
110.44,-0.0027,0.13785
110.46,-0.0027,0.138
110.48,-0.0027,0.138
110.5,-0.0027,0.138
110.52,-0.0027,0.13815
110.54,-0.0027,0.13815
110.56,-0.00255,0.138
110.581,-0.00375,0.13785
110.599,-0.00135,0.13785
110.62,-0.00285,0.13785
110.64,-0.0027,0.13785
110.661,-0.0036,0.13785
110.681,-0.0036,0.138
110.7,-0.00345,0.13785
110.72,-0.00375,0.1377
110.74,-0.0036,0.13755
110.76,-0.0036,0.1377
110.779,-0.00285,0.1377
110.8,-0.0036,0.1377
110.821,-0.0033,0.1377
110.84,-0.0036,0.13785
110.86,-0.0036,0.13785
110.881,-0.0036,0.138
110.899,-0.00285,0.138
110.92,-0.00345,0.13785
110.94,-0.00375,0.138
110.96,-0.0036,0.13785
110.979,-0.00285,0.138
111,-0.00345,0.138
111.02,-0.0036,0.138
111.04,-0.00285,0.13815
111.06,-0.00285,0.1383
111.08,-0.0036,0.13845
111.1,-0.00285,0.13845
111.12,-0.00285,0.13845
111.14,-0.00285,0.13845
111.16,-0.00285,0.1383
111.179,-0.003,0.13815
111.2,-0.0033,0.13815
111.22,-0.003,0.13815
111.24,-0.003,0.13815
111.26,-0.00285,0.138
111.279,-0.0015,0.13815
111.3,-0.00285,0.13815
111.32,-0.003,0.13815
111.34,-0.003,0.1383
111.36,-0.003,0.1383
111.379,-0.0015,0.1383
111.4,-0.003,0.13845
111.42,-0.003,0.1383
111.44,-0.003,0.1383
111.461,-0.0036,0.1383
111.479,-0.003,0.1386
111.5,-0.0036,0.13875
111.52,-0.0036,0.1383
111.54,-0.0036,0.13845
111.56,-0.0036,0.13845
111.58,-0.00375,0.13815
111.6,-0.0036,0.138
111.62,-0.00315,0.13815
111.64,-0.003,0.1383
111.66,-0.003,0.1383
111.68,-0.00315,0.13815
111.7,-0.00315,0.13815
111.72,-0.00315,0.138
111.74,-0.00315,0.138
111.76,-0.00315,0.13785
111.78,-0.00315,0.138
111.8,-0.003,0.138
111.82,-0.00315,0.138
111.841,-0.0036,0.13815
111.86,-0.00315,0.13815
111.88,-0.00315,0.13815
111.9,-0.00315,0.13815
111.92,-0.00315,0.13815
111.94,-0.00315,0.138
111.961,-0.0036,0.138
111.98,-0.0036,0.138
112.001,-0.0033,0.13815
112.02,-0.0036,0.1383
112.04,-0.0036,0.13815
112.06,-0.0036,0.1383
112.08,-0.0036,0.1383
112.1,-0.0036,0.13815
112.12,-0.0036,0.13815
112.14,-0.00375,0.13815
112.16,-0.00315,0.13815
112.18,-0.00315,0.13785
112.2,-0.0033,0.13785
112.22,-0.0033,0.13785
112.24,-0.0033,0.13785
112.26,-0.00315,0.13815
112.28,-0.0033,0.138
112.3,-0.0033,0.1377
112.321,-0.0036,0.13785
112.342,-0.00285,0.138
112.36,-0.0033,0.13785
112.38,-0.0033,0.138
112.4,-0.00315,0.138
112.42,-0.0033,0.138
112.44,-0.0033,0.13785
112.46,-0.0033,0.13785
112.481,-0.0036,0.13815
112.5,-0.0033,0.13815
112.52,-0.0033,0.13815
112.54,-0.0033,0.138
112.559,-0.00195,0.13815
112.58,-0.0033,0.138
112.6,-0.00345,0.13785
112.62,-0.0033,0.138
112.64,-0.0033,0.13815
112.659,-0.00195,0.13815
112.68,-0.0033,0.138
112.7,-0.0033,0.13785
112.72,-0.0033,0.138
112.74,-0.0033,0.13815
112.759,-0.00195,0.13815
112.78,-0.00345,0.13815
112.8,-0.0033,0.13815
112.82,-0.00345,0.13815
112.84,-0.00345,0.13815
112.859,-0.00195,0.13815
112.88,-0.00345,0.1383
112.9,-0.0033,0.1383
112.92,-0.00345,0.1383
112.94,-0.00345,0.13845
112.96,-0.00345,0.13845
112.98,-0.0036,0.1386
113.001,-0.00345,0.1386
113.021,-0.0036,0.13845
113.04,-0.00345,0.1383
113.06,-0.0036,0.13815
113.08,-0.00345,0.13815
113.1,-0.00345,0.1383
113.12,-0.00345,0.13815
113.14,-0.00345,0.13815
113.16,-0.00345,0.13815
113.179,-0.00345,0.13815
113.2,-0.00345,0.13815
113.22,-0.00345,0.138
113.24,-0.00345,0.13815
113.26,-0.00345,0.1383
113.28,-0.00345,0.1383
113.3,-0.00345,0.13815
113.32,-0.00345,0.13845
113.34,-0.00345,0.1383
113.36,-0.00345,0.1383
113.381,-0.00315,0.1383
113.4,-0.00345,0.1383
113.42,-0.00345,0.13845
113.44,-0.00345,0.13845
113.46,-0.00345,0.1386
113.48,-0.00345,0.1386
113.5,-0.00345,0.1386
113.52,-0.00345,0.1383
113.539,-0.00345,0.1383
113.56,-0.0036,0.1383
113.58,-0.00345,0.1383
113.6,-0.00345,0.13815
113.62,-0.00375,0.13845
113.64,-0.00345,0.1386
113.661,-0.00345,0.13845
113.681,-0.00345,0.13815
113.7,-0.0033,0.1383
113.72,-0.00345,0.1383
113.74,-0.00345,0.1383
113.76,-0.00345,0.13845
113.78,-0.0033,0.13845
113.8,-0.0033,0.13845
113.82,-0.0033,0.13845
113.84,-0.00345,0.1386
113.86,-0.0036,0.13875
113.88,-0.00345,0.1386
113.9,-0.0036,0.13845
113.92,-0.00345,0.13845
113.94,-0.00345,0.1383
113.96,-0.00345,0.1383
113.98,-0.0033,0.13815
114,-0.0027,0.1383
114.02,-0.00345,0.13845
114.04,-0.00345,0.13845
114.06,-0.0033,0.13845
114.08,-0.00345,0.13845
114.1,-0.00345,0.1383
114.12,-0.00345,0.1386
114.14,-0.0036,0.1386
114.16,-0.0033,0.1386
114.18,-0.0033,0.13845
114.2,-0.00345,0.1383
114.22,-0.00345,0.1383
114.241,-0.00315,0.13815
114.26,-0.00345,0.1383
114.28,-0.00345,0.1383
114.3,-0.0036,0.1383
114.321,-0.0033,0.1386
114.339,-0.00255,0.1386
114.36,-0.00345,0.13815
114.38,-0.0036,0.13815
114.4,-0.00345,0.1383
114.42,-0.0036,0.13845
114.44,-0.0036,0.1383
114.46,-0.00345,0.13845
114.48,-0.00345,0.13845
114.5,-0.0033,0.13845
114.521,-0.00315,0.1386
114.539,-0.0036,0.1386
114.56,-0.00345,0.1389
114.58,-0.00345,0.1389
114.6,-0.00345,0.13875
114.62,-0.0033,0.1386
114.639,-0.0036,0.1386
114.661,-0.0033,0.13845
114.68,-0.0036,0.1386
114.7,-0.0036,0.1386
114.72,-0.0036,0.13845
114.74,-0.00345,0.13845
114.761,-0.00345,0.1383
114.78,-0.0033,0.13845
114.8,-0.0033,0.1386
114.82,-0.0033,0.13845
114.839,-0.0036,0.1386
114.86,-0.00345,0.1386
114.88,-0.0033,0.13845
114.9,-0.0033,0.13845
114.92,-0.00345,0.1386
114.939,-0.0036,0.1386
114.96,-0.0033,0.1386
114.98,-0.00345,0.13875
115,-0.00345,0.1386
115.02,-0.0036,0.1386
115.039,-0.0036,0.13845
115.06,-0.00345,0.1383
115.08,-0.0033,0.1383
115.1,-0.0033,0.13845
115.12,-0.0033,0.13845
115.14,-0.0036,0.1383
115.16,-0.00375,0.1386
115.181,-0.0033,0.13845
115.2,-0.0033,0.13845
115.22,-0.0033,0.1386
115.24,-0.0033,0.13875
115.26,-0.00345,0.13875
115.28,-0.00375,0.1386
115.3,-0.0033,0.1386
115.32,-0.0036,0.1386
115.34,-0.00345,0.13875
115.36,-0.0036,0.13875
115.38,-0.00375,0.1389
115.4,-0.0036,0.1389
115.42,-0.0036,0.1389
115.44,-0.00345,0.13875
115.46,-0.00375,0.13875
115.48,-0.0036,0.13875
115.501,-0.0033,0.1386
115.52,-0.0036,0.1386
115.54,-0.0033,0.13875
115.56,-0.00345,0.13875
115.58,-0.0033,0.1386
115.6,-0.0036,0.13845
115.619,-0.0036,0.13845
115.64,-0.0033,0.1386
115.66,-0.00345,0.13875
115.68,-0.00345,0.1386
115.7,-0.0036,0.13845
115.72,-0.0033,0.13845
115.74,-0.0033,0.1386
115.76,-0.00345,0.1386
115.78,-0.00315,0.1386
115.8,-0.00375,0.13845
115.82,-0.0036,0.13845
115.84,-0.0036,0.13845
115.86,-0.00345,0.13845
115.88,-0.0036,0.1383
115.9,-0.0036,0.1383
115.92,-0.00345,0.13815
115.941,-0.0033,0.13815
115.96,-0.0033,0.1386
115.98,-0.0033,0.13845
116,-0.0033,0.1383
116.02,-0.0033,0.13845
116.04,-0.00315,0.13845
116.06,-0.0033,0.1383
116.08,-0.0033,0.13845
116.1,-0.0033,0.1386
116.12,-0.0036,0.1386
116.14,-0.0036,0.1386
116.16,-0.0036,0.1386
116.18,-0.0036,0.1389
116.2,-0.0036,0.13875
116.221,-0.00315,0.1386
116.241,-0.0033,0.13845
116.26,-0.0033,0.1386
116.28,-0.0033,0.13845
116.3,-0.0033,0.13845
116.32,-0.00315,0.1386
116.34,-0.0033,0.13845
116.36,-0.00315,0.13845
116.38,-0.0033,0.1383
116.4,-0.00315,0.13845
116.42,-0.0033,0.13845
116.44,-0.00345,0.13845
116.46,-0.0036,0.13875
116.48,-0.0036,0.13875
116.5,-0.0036,0.13875
116.52,-0.0036,0.1386
116.54,-0.0036,0.1386
116.56,-0.00345,0.1386
116.581,-0.00315,0.1386
116.6,-0.0033,0.13845
116.621,-0.00315,0.1386
116.64,-0.00315,0.13845
116.66,-0.00315,0.13845
116.68,-0.0036,0.1386
116.7,-0.0036,0.1386
116.72,-0.00345,0.13845
116.741,-0.00315,0.13845
116.76,-0.00315,0.13845
116.78,-0.00345,0.1386
116.8,-0.0036,0.1386
116.82,-0.0036,0.1386
116.84,-0.0036,0.13845
116.861,-0.00315,0.1386
116.88,-0.0036,0.13845
116.9,-0.00315,0.1386
116.92,-0.00315,0.13875
116.94,-0.00315,0.1386
116.96,-0.00315,0.1386
116.98,-0.00315,0.13845
117,-0.00315,0.13875
117.02,-0.00315,0.13845
117.04,-0.0036,0.13845
117.06,-0.00345,0.13845
117.08,-0.0036,0.13845
117.1,-0.0036,0.1383
117.12,-0.00345,0.1383
117.14,-0.00345,0.13845
117.161,-0.00315,0.13845
117.181,-0.0033,0.13845
117.2,-0.0036,0.1386
117.22,-0.0036,0.1386
117.241,-0.00315,0.1386
117.261,-0.00285,0.1386
117.28,-0.00315,0.13845
117.3,-0.00315,0.1383
117.32,-0.00315,0.1383
117.341,-0.00285,0.13815
117.36,-0.00315,0.13815
117.38,-0.00315,0.13845
117.4,-0.00345,0.1383
117.42,-0.00345,0.13785
117.44,-0.00345,0.138
117.46,-0.00345,0.138
117.48,-0.00345,0.138
117.5,-0.00345,0.138
117.52,-0.00345,0.138
117.54,-0.00345,0.13815
117.559,-0.00345,0.1383
117.58,-0.0033,0.1383
117.599,-0.00345,0.13845
117.62,-0.0036,0.13845
117.64,-0.00345,0.13845
117.66,-0.0033,0.13845
117.68,-0.0036,0.13845
117.7,-0.00345,0.13845
117.72,-0.00315,0.1383
117.741,-0.00315,0.13845
117.76,-0.00345,0.1383
117.78,-0.00345,0.1386
117.801,-0.0033,0.13845
117.822,-0.0027,0.13845
117.84,-0.00315,0.13845
117.86,-0.0033,0.13845
117.881,-0.00315,0.1386
117.901,-0.00315,0.13845
117.92,-0.00315,0.13845
117.941,-0.00285,0.13845
117.96,-0.00285,0.1383
117.98,-0.0033,0.1383
118,-0.00345,0.13845
118.021,-0.00315,0.1386
118.041,-0.003,0.1386
118.06,-0.00315,0.1386
118.08,-0.00315,0.1386
118.1,-0.00315,0.1386
118.12,-0.00315,0.13845
118.14,-0.00345,0.13845
118.16,-0.00345,0.1386
118.18,-0.00345,0.1386
118.2,-0.00345,0.13845
118.22,-0.00345,0.1386
118.24,-0.0033,0.13845
118.259,-0.0036,0.13845
118.28,-0.00345,0.1383
118.3,-0.0033,0.1383
118.32,-0.00345,0.1383
118.34,-0.0033,0.1383
118.359,-0.00345,0.1383
118.38,-0.0033,0.13815
118.4,-0.00345,0.1383
118.42,-0.00345,0.1383
118.44,-0.00345,0.1383
118.459,-0.00345,0.1383
118.48,-0.00345,0.13815
118.5,-0.00345,0.13815
118.52,-0.00345,0.1383
118.54,-0.00345,0.1383
118.559,-0.00345,0.1383
118.58,-0.0036,0.13815
118.601,-0.003,0.13815
118.62,-0.00345,0.13815
118.64,-0.0033,0.13815
118.66,-0.00315,0.13815
118.68,-0.00315,0.13815
118.7,-0.00315,0.13815
118.72,-0.0027,0.138
118.74,-0.00315,0.138
118.759,-0.00345,0.138
118.78,-0.00315,0.138
118.8,-0.00315,0.13815
118.82,-0.00315,0.138
118.84,-0.00315,0.138
118.861,-0.00315,0.13815
118.88,-0.003,0.1383
118.9,-0.00315,0.1383
118.92,-0.003,0.1383
118.94,-0.00315,0.1383
118.96,-0.0033,0.138
118.98,-0.00345,0.13815
119,-0.00345,0.13815
119.02,-0.0033,0.13815
119.04,-0.00315,0.13815
119.06,-0.00315,0.13815
119.08,-0.003,0.1383
119.1,-0.00315,0.1383
119.121,-0.00255,0.13815
119.14,-0.003,0.13815
119.16,-0.00315,0.13845
119.18,-0.003,0.13815
119.2,-0.0033,0.138
119.22,-0.0033,0.138
119.24,-0.0033,0.13845
119.259,-0.0033,0.13815
119.28,-0.0033,0.13815
119.3,-0.0033,0.1383
119.32,-0.00345,0.13815
119.34,-0.0033,0.1383
119.359,-0.0033,0.13815
119.38,-0.003,0.1383
119.4,-0.003,0.13845
119.42,-0.003,0.13845
119.44,-0.003,0.1383
119.46,-0.0033,0.13815
119.48,-0.003,0.138
119.501,-0.003,0.13815
119.52,-0.00285,0.138
119.54,-0.003,0.13785
119.56,-0.0033,0.13785
119.58,-0.00345,0.1377
119.6,-0.0033,0.1377
119.62,-0.0033,0.13755
119.64,-0.0033,0.13755
119.659,-0.0033,0.13785
119.68,-0.003,0.1377
119.7,-0.003,0.1377
119.72,-0.003,0.13755
119.74,-0.003,0.13785
119.76,-0.0033,0.13785
119.781,-0.00285,0.13785
119.801,-0.003,0.138
119.82,-0.00285,0.13815
119.84,-0.003,0.13815
119.86,-0.0033,0.13815
119.88,-0.0033,0.1383
119.899,-0.0036,0.13845
119.92,-0.00345,0.1383
119.94,-0.0033,0.1383
119.959,-0.0033,0.13815
119.98,-0.00285,0.13815
120,-0.00285,0.1383
120.019,-0.0033,0.1383
120.04,-0.003,0.1383
120.061,-0.00285,0.1383
120.08,-0.0033,0.1383
120.1,-0.0033,0.13845
120.12,-0.0033,0.1386
120.14,-0.0033,0.1383
120.159,-0.0036,0.1383
120.18,-0.00285,0.13845
120.2,-0.0033,0.1383
120.22,-0.0033,0.13815
120.241,-0.00285,0.138
120.26,-0.0033,0.1383
120.281,-0.00285,0.13845
120.3,-0.00285,0.13845
120.32,-0.00285,0.1383
120.34,-0.00285,0.1383
120.36,-0.003,0.1383
120.38,-0.003,0.13815
120.4,-0.00285,0.138
120.42,-0.0033,0.13815
120.44,-0.0033,0.138
120.46,-0.0033,0.138
120.48,-0.0033,0.13815
120.5,-0.0033,0.138
120.52,-0.0033,0.13785
120.54,-0.0033,0.138
120.559,-0.0036,0.138
120.58,-0.0033,0.138
120.6,-0.0033,0.1383
120.62,-0.0033,0.13845
120.64,-0.003,0.13815
120.659,-0.00345,0.138
120.68,-0.00315,0.13815
120.7,-0.00315,0.1383
120.72,-0.00315,0.1383
120.741,-0.00285,0.1386
120.76,-0.00285,0.13845
120.78,-0.00285,0.13845
120.8,-0.00285,0.1383
120.82,-0.00285,0.13815
120.84,-0.00285,0.1383
120.86,-0.00315,0.1383
120.88,-0.0033,0.1383
120.9,-0.00315,0.1383
120.92,-0.0033,0.1383
120.94,-0.00315,0.1383
120.96,-0.0033,0.13845
120.98,-0.00315,0.1386
121,-0.0033,0.1386
121.02,-0.00315,0.13845
121.041,-0.00285,0.13815
121.06,-0.00285,0.13815
121.08,-0.00315,0.13815
121.1,-0.00315,0.13815
121.12,-0.00315,0.1383
121.139,-0.0036,0.13845
121.161,-0.0027,0.1383
121.18,-0.00315,0.13845
121.2,-0.00315,0.13845
121.22,-0.00315,0.13845
121.24,-0.00315,0.13845
121.26,-0.0033,0.1386
121.281,-0.00285,0.1386
121.301,-0.00285,0.13845
121.32,-0.00285,0.13845
121.339,-0.00315,0.1383
121.36,-0.00285,0.1386
121.38,-0.00285,0.1383
121.4,-0.00285,0.13815
121.42,-0.00285,0.13815
121.44,-0.00285,0.1383
121.46,-0.00285,0.1383
121.48,-0.00285,0.13815
121.5,-0.00285,0.1383
121.52,-0.00285,0.13845
121.539,-0.00315,0.13845
121.56,-0.00285,0.13845
121.58,-0.00285,0.1386
121.6,-0.00285,0.1386
121.62,-0.00285,0.1386
121.639,-0.00315,0.13845
121.66,-0.00285,0.13845
121.679,-0.00315,0.13845
121.7,-0.00315,0.13845
121.72,-0.00315,0.1383
121.739,-0.00315,0.1383
121.76,-0.00285,0.13845
121.78,-0.00285,0.1383
121.8,-0.00315,0.13845
121.82,-0.00315,0.13875
121.839,-0.003,0.1386
121.86,-0.00285,0.13875
121.88,-0.00285,0.1386
121.9,-0.00285,0.13875
121.92,-0.00285,0.1386
121.94,-0.00285,0.13845
121.96,-0.00315,0.1383
121.98,-0.00315,0.13845
122,-0.00315,0.1386
122.02,-0.00315,0.1386
122.039,-0.00315,0.1386
122.06,-0.00285,0.1386
122.08,-0.00285,0.1386
122.1,-0.00315,0.1386
122.12,-0.0033,0.1383
122.14,-0.00315,0.138
122.16,-0.00315,0.1383
122.18,-0.00315,0.1383
122.2,-0.00315,0.1383
122.221,-0.00285,0.1383
122.239,-0.0033,0.1383
122.26,-0.00315,0.13845
122.281,-0.00285,0.13845
122.301,-0.00285,0.1386
122.32,-0.0027,0.13875
122.34,-0.00315,0.1386
122.36,-0.00315,0.1386
122.381,-0.00285,0.1386
122.4,-0.00315,0.1386
122.42,-0.00315,0.13875
122.441,-0.00285,0.13875
122.461,-0.0027,0.13845
122.48,-0.0027,0.1386
122.5,-0.00285,0.13875
122.52,-0.0027,0.1389
122.54,-0.00315,0.1389
122.56,-0.00315,0.1386
122.581,-0.0027,0.13875
122.601,-0.00285,0.1389
122.62,-0.00285,0.1389
122.64,-0.0027,0.1389
122.661,-0.00255,0.13845
122.68,-0.00255,0.1386
122.7,-0.00285,0.1386
122.72,-0.0027,0.1386
122.74,-0.00285,0.13845
122.76,-0.0027,0.1383
122.78,-0.00285,0.1383
122.8,-0.0027,0.1386
122.819,-0.0033,0.13875
122.84,-0.0027,0.13875
122.861,-0.0027,0.13845
122.88,-0.00315,0.13845
122.899,-0.003,0.1386
122.92,-0.0027,0.1386
122.94,-0.00315,0.1389
122.962,-0.0027,0.13875
122.98,-0.00315,0.1389
123,-0.00315,0.13875
123.02,-0.00315,0.13875
123.039,-0.00315,0.1389
123.06,-0.0027,0.1386
123.08,-0.00285,0.1386
123.1,-0.0027,0.1386
123.12,-0.00315,0.1386
123.14,-0.003,0.1386
123.16,-0.00315,0.1386
123.18,-0.00315,0.1386
123.201,-0.0027,0.1386
123.221,-0.0027,0.1386
123.241,-0.0027,0.1383
123.26,-0.0027,0.1383
123.28,-0.00255,0.13815
123.3,-0.0027,0.1383
123.32,-0.0027,0.13845
123.34,-0.00315,0.13845
123.36,-0.00315,0.13845
123.38,-0.00315,0.13845
123.4,-0.00315,0.13845
123.421,-0.0027,0.13845
123.441,-0.0027,0.13845
123.46,-0.00315,0.13845
123.481,-0.0027,0.13845
123.5,-0.00315,0.13845
123.52,-0.0027,0.13845
123.54,-0.00315,0.1383
123.56,-0.003,0.1386
123.58,-0.00315,0.13875
123.6,-0.003,0.13875
123.621,-0.0027,0.13845
123.64,-0.0027,0.13845
123.66,-0.00315,0.1386
123.68,-0.0027,0.1386
123.7,-0.0027,0.1386
123.72,-0.0027,0.13845
123.74,-0.0027,0.13845
123.759,-0.003,0.1383
123.78,-0.0027,0.13815
123.8,-0.0027,0.1383
123.82,-0.0027,0.13845
123.84,-0.0027,0.13875
123.861,-0.0027,0.1386
123.88,-0.0027,0.13845
123.9,-0.0027,0.1386
123.92,-0.0027,0.1383
123.94,-0.0027,0.13845
123.961,-0.0027,0.1386
123.98,-0.0027,0.1386
124,-0.00255,0.13845
124.02,-0.0027,0.1383
124.04,-0.0027,0.1386
124.06,-0.0027,0.1386
124.08,-0.0027,0.1386
124.1,-0.0027,0.1383
124.12,-0.0027,0.1383
124.14,-0.0027,0.1383
124.16,-0.003,0.1383
124.18,-0.003,0.13845
124.2,-0.003,0.1383
124.22,-0.003,0.13845
124.239,-0.00345,0.1386
124.26,-0.003,0.1386
124.28,-0.003,0.13875
124.3,-0.003,0.13875
124.32,-0.003,0.13875
124.34,-0.003,0.13845
124.361,-0.0027,0.13845
124.381,-0.0027,0.1386
124.4,-0.0027,0.13845
124.42,-0.0027,0.1383
124.44,-0.003,0.13845
124.46,-0.003,0.1386
124.48,-0.003,0.13845
124.5,-0.003,0.13845
124.52,-0.00285,0.1383
124.54,-0.00285,0.13845
124.561,-0.0027,0.1383
124.58,-0.0027,0.13815
124.6,-0.0027,0.13845
124.62,-0.0027,0.1386
124.639,-0.00285,0.1386
124.66,-0.0027,0.13845
124.68,-0.0027,0.13845
124.7,-0.00255,0.1386
124.72,-0.0027,0.1386
124.741,-0.0027,0.1383
124.76,-0.00285,0.1383
124.78,-0.003,0.1383
124.8,-0.00285,0.1383
124.82,-0.003,0.13845
124.84,-0.00285,0.1383
124.86,-0.0027,0.1383
124.88,-0.00255,0.13845
124.9,-0.0027,0.13875
124.92,-0.0027,0.13875
124.94,-0.00285,0.1386
124.96,-0.00285,0.1386
124.98,-0.00285,0.1386
125,-0.00285,0.13875
125.02,-0.00285,0.1389
125.039,-0.00285,0.13875
125.06,-0.00285,0.13875
125.08,-0.00285,0.13875
125.1,-0.00285,0.13875
125.12,-0.00285,0.1386
125.14,-0.00285,0.1386
125.16,-0.00285,0.1386
125.18,-0.00285,0.1386
125.2,-0.00285,0.13875
125.22,-0.00285,0.13875
125.239,-0.00285,0.13875
125.261,-0.0027,0.1386
125.28,-0.00255,0.13845
125.3,-0.0027,0.13845
125.32,-0.00255,0.1383
125.34,-0.00285,0.1386
125.361,-0.0027,0.1383
125.381,-0.0027,0.13845
125.4,-0.0027,0.13845
125.421,-0.00255,0.1386
125.439,-0.00285,0.13845
125.46,-0.0027,0.1386
125.48,-0.0027,0.1386
125.5,-0.0027,0.1386
125.52,-0.0027,0.13845
125.54,-0.0027,0.1383
125.56,-0.0027,0.1383
125.58,-0.00285,0.13845
125.6,-0.00285,0.13845
125.62,-0.00285,0.1383
125.639,-0.00285,0.13845
125.66,-0.0027,0.1386
125.68,-0.0027,0.1386
125.7,-0.00285,0.13845
125.72,-0.00285,0.13845
125.74,-0.00255,0.1386
125.76,-0.0027,0.13845
125.781,-0.0027,0.13845
125.8,-0.00285,0.1386
125.82,-0.00285,0.13875
125.839,-0.00285,0.13875
125.86,-0.0027,0.13875
125.88,-0.00255,0.1389
125.9,-0.0027,0.13875
125.92,-0.00255,0.1386
125.94,-0.0027,0.1386
125.96,-0.0027,0.1386
125.98,-0.00255,0.1386
126,-0.0027,0.1386
126.019,-0.0027,0.1386
126.04,-0.00285,0.1386
126.06,-0.00285,0.13845
126.08,-0.00285,0.13815
126.1,-0.0027,0.138
126.12,-0.00285,0.1383
126.14,-0.00285,0.1383
126.16,-0.0027,0.13845
126.179,-0.003,0.13845
126.2,-0.00285,0.13845
126.22,-0.00285,0.13845
126.241,-0.0027,0.13845
126.261,-0.0027,0.1389
126.28,-0.00285,0.13875
126.301,-0.0027,0.1386
126.32,-0.00285,0.1386
126.341,-0.0027,0.1386
126.361,-0.0027,0.1386
126.38,-0.0027,0.1386
126.4,-0.0027,0.1386
126.42,-0.0027,0.13845
126.44,-0.0027,0.13875
126.46,-0.00255,0.1386
126.48,-0.00285,0.1386
126.5,-0.0027,0.1386
126.52,-0.0027,0.1386
126.539,-0.00285,0.13875
126.56,-0.0027,0.13845
126.58,-0.00255,0.1386
126.6,-0.0027,0.1386
126.62,-0.00255,0.13875
126.64,-0.00255,0.13875
126.66,-0.0027,0.1389
126.68,-0.00255,0.1389
126.7,-0.00285,0.1389
126.72,-0.0027,0.1389
126.739,-0.0027,0.13875
126.76,-0.0027,0.13875
126.78,-0.0027,0.1389
126.8,-0.0027,0.13875
126.82,-0.0027,0.1386
126.84,-0.0027,0.13875
126.86,-0.0027,0.13875
126.88,-0.0027,0.13875
126.9,-0.0027,0.1386
126.92,-0.0027,0.13875
126.94,-0.0027,0.13875
126.96,-0.0027,0.13875
126.98,-0.00285,0.13875
127,-0.0027,0.13875
127.02,-0.0027,0.13875
127.039,-0.0027,0.1386
127.06,-0.0027,0.13875
127.08,-0.0027,0.1386
127.1,-0.0027,0.13845
127.12,-0.0027,0.1386
127.14,-0.00285,0.13845
127.16,-0.0027,0.13845
127.18,-0.0027,0.13845
127.201,-0.00255,0.13845
127.221,-0.00255,0.13845
127.24,-0.0027,0.13845
127.26,-0.00255,0.1386
127.28,-0.00255,0.13875
127.3,-0.00255,0.1389
127.32,-0.00255,0.13875
127.34,-0.0027,0.13875
127.361,-0.00255,0.1386
127.38,-0.00255,0.13845
127.4,-0.00255,0.13845
127.42,-0.00255,0.1383
127.44,-0.00255,0.1383
127.46,-0.00255,0.1383
127.48,-0.0027,0.13845
127.5,-0.0027,0.13845
127.52,-0.0027,0.1386
127.54,-0.0027,0.13845
127.561,-0.00255,0.1386
127.581,-0.00255,0.13875
127.6,-0.00255,0.13875
127.62,-0.00255,0.1389
127.64,-0.00255,0.13875
127.66,-0.00255,0.1386
127.68,-0.00255,0.1383
127.7,-0.00255,0.13845
127.72,-0.00255,0.1386
127.74,-0.0027,0.13845
127.761,-0.00255,0.1386
127.781,-0.00255,0.13845
127.801,-0.00255,0.13845
127.82,-0.00255,0.13845
127.842,-0.00225,0.1386
127.86,-0.0027,0.1386
127.88,-0.0027,0.13845
127.9,-0.0027,0.13845
127.92,-0.00255,0.13845
127.94,-0.0024,0.13845
127.96,-0.0024,0.1383
127.98,-0.0024,0.1383
128,-0.00255,0.1383
128.02,-0.00255,0.1383
128.041,-0.0024,0.1383
128.06,-0.0024,0.1383
128.08,-0.0024,0.13815
128.1,-0.00255,0.13815
128.119,-0.0027,0.13815
128.14,-0.0027,0.1383
128.161,-0.0024,0.1383
128.18,-0.00255,0.13845
128.2,-0.0024,0.13845
128.22,-0.00195,0.1383
128.24,-0.0024,0.1383
128.26,-0.0024,0.13845
128.28,-0.0024,0.1386
128.3,-0.0024,0.13845
128.32,-0.0027,0.1386
128.34,-0.0027,0.1386
128.36,-0.00255,0.13845
128.38,-0.0027,0.13815
128.4,-0.0027,0.1383
128.42,-0.0027,0.1383
128.441,-0.0024,0.1383
128.46,-0.0024,0.13845
128.48,-0.00255,0.1386
128.5,-0.0024,0.1386
128.52,-0.0024,0.13875
128.54,-0.0024,0.13875
128.56,-0.0024,0.13875
128.58,-0.0024,0.13875
128.6,-0.0027,0.13875
128.62,-0.0027,0.1389
128.64,-0.0027,0.1386
128.66,-0.0027,0.1386
128.68,-0.0027,0.13875
128.7,-0.0027,0.13875
128.719,-0.00285,0.13875
128.741,-0.0021,0.1386
128.76,-0.0027,0.1386
128.78,-0.0027,0.13845
128.8,-0.0027,0.1386
128.821,-0.0024,0.13845
128.841,-0.0024,0.13845
128.86,-0.0024,0.13845
128.88,-0.0024,0.13845
128.901,-0.0021,0.13845
128.92,-0.0024,0.13845
128.94,-0.0024,0.13845
128.96,-0.0024,0.13845
128.98,-0.0024,0.1383
129,-0.0024,0.1383
129.02,-0.0024,0.13845
129.04,-0.0024,0.1383
129.06,-0.0024,0.1383
129.08,-0.00225,0.1383
129.1,-0.00255,0.1386
129.119,-0.0027,0.1386
129.14,-0.0027,0.1386
129.16,-0.0027,0.1386
129.179,-0.00285,0.1386
129.2,-0.0027,0.13845
129.219,-0.00285,0.1386
129.24,-0.00255,0.13845
129.26,-0.0027,0.13845
129.28,-0.0027,0.1386
129.3,-0.00225,0.1386
129.32,-0.00225,0.1386
129.34,-0.00225,0.1383
129.36,-0.00225,0.1383
129.38,-0.00225,0.13815
129.4,-0.00225,0.1383
129.42,-0.00225,0.1383
129.44,-0.00255,0.13815
129.46,-0.0027,0.138
129.48,-0.0027,0.13815
129.5,-0.00255,0.13845
129.52,-0.00255,0.13845
129.54,-0.00255,0.13815
129.56,-0.00225,0.1383
129.58,-0.00225,0.1383
129.601,-0.0021,0.1383
129.62,-0.00225,0.1383
129.64,-0.0027,0.1383
129.66,-0.00255,0.13815
129.68,-0.00255,0.1383
129.7,-0.00255,0.13815
129.72,-0.00255,0.13815
129.74,-0.00255,0.13815
129.761,-0.00225,0.13815
129.78,-0.00225,0.1383
129.8,-0.00225,0.13815
129.819,-0.00255,0.1383
129.84,-0.00225,0.1383
129.86,-0.00225,0.13845
129.88,-0.00225,0.13845
129.9,-0.00225,0.1383
129.92,-0.00255,0.13845
129.941,-0.00225,0.13845
129.96,-0.00225,0.13845
129.98,-0.00225,0.13845
130.001,-0.00195,0.1383
130.02,-0.00255,0.13845
130.04,-0.00255,0.1386
130.06,-0.00255,0.1386
130.08,-0.00255,0.1386
130.1,-0.0024,0.1386
130.121,-0.00225,0.13845
130.14,-0.00255,0.1386
130.161,-0.00225,0.1386
130.181,-0.00225,0.1386
130.201,-0.00195,0.1383
130.22,-0.00255,0.1383
130.24,-0.00225,0.1383
130.26,-0.00225,0.1383
130.28,-0.00225,0.13815
130.3,-0.00225,0.1383
130.32,-0.00225,0.13845
130.34,-0.0021,0.1383
130.36,-0.00255,0.1383
130.38,-0.0024,0.1383
130.401,-0.00225,0.13815
130.419,-0.00255,0.138
130.44,-0.00225,0.138
130.46,-0.00225,0.138
130.48,-0.00225,0.13815
130.5,-0.0024,0.13815
130.519,-0.0024,0.138
130.54,-0.0024,0.138
130.56,-0.0024,0.13815
130.58,-0.0024,0.13815
130.601,-0.00225,0.138
130.62,-0.00255,0.138
130.64,-0.0024,0.138
130.66,-0.0024,0.13785
130.68,-0.0024,0.13785
130.7,-0.0024,0.138
130.721,-0.00225,0.13815
130.74,-0.0021,0.13815
130.76,-0.00225,0.13785
130.78,-0.00225,0.13785
130.8,-0.0021,0.13785
130.819,-0.0024,0.13785
130.84,-0.0021,0.138
130.86,-0.00225,0.138
130.88,-0.0021,0.138
130.9,-0.00225,0.138
130.92,-0.0021,0.138
130.94,-0.0021,0.1383
130.96,-0.0021,0.1383
130.98,-0.0024,0.13815
131,-0.0024,0.1383
131.02,-0.0024,0.13845
131.04,-0.0024,0.13845
131.06,-0.0024,0.13845
131.08,-0.0024,0.1383
131.1,-0.0024,0.1383
131.119,-0.00255,0.13845
131.14,-0.0024,0.13845
131.16,-0.0024,0.13845
131.18,-0.0024,0.1383
131.2,-0.0024,0.1383
131.219,-0.0024,0.1383
131.24,-0.0021,0.138
131.26,-0.0021,0.13785
131.28,-0.0021,0.13815
131.3,-0.0021,0.13815
131.32,-0.0024,0.13815
131.34,-0.0024,0.13845
131.36,-0.00225,0.1383
131.38,-0.0024,0.13845
131.4,-0.0024,0.1383
131.42,-0.00225,0.1383
131.441,-0.0018,0.1383
131.46,-0.0024,0.13815
131.48,-0.0024,0.138
131.5,-0.00225,0.13785
131.519,-0.00225,0.138
131.54,-0.0024,0.138
131.56,-0.0024,0.138
131.58,-0.0024,0.13815
131.6,-0.00225,0.13815
131.619,-0.00225,0.1383
131.64,-0.0021,0.13815
131.66,-0.0021,0.138
131.68,-0.0021,0.138
131.7,-0.0021,0.138
131.721,-0.00195,0.138
131.74,-0.00195,0.13755
131.76,-0.0021,0.1377
131.78,-0.0021,0.13785
131.8,-0.0021,0.13815
131.82,-0.00225,0.13815
131.841,-0.00195,0.13815
131.86,-0.00195,0.138
131.88,-0.00195,0.1383
131.9,-0.0021,0.1383
131.92,-0.00195,0.13845
131.94,-0.00195,0.13845
131.96,-0.00195,0.1383
131.98,-0.00195,0.1383
132,-0.00225,0.13815
132.019,-0.00225,0.138
132.04,-0.00195,0.138
132.06,-0.00195,0.13815
132.08,-0.00225,0.1383
132.1,-0.00225,0.13845
132.12,-0.00225,0.1386
132.14,-0.00195,0.13845
132.16,-0.00195,0.1383
132.18,-0.00195,0.13815
132.2,-0.00195,0.13815
132.221,-0.0018,0.138
132.24,-0.0015,0.13815
132.26,-0.00195,0.1383
132.28,-0.00195,0.13845
132.3,-0.00225,0.1383
132.32,-0.00225,0.13845
132.339,-0.00225,0.1386
132.36,-0.00225,0.1386
132.38,-0.00195,0.13845
132.4,-0.00195,0.13845
132.42,-0.00195,0.13845
132.44,-0.00225,0.13845
132.46,-0.00225,0.1383
132.481,-0.00195,0.13845
132.501,-0.00195,0.1383
132.521,-0.00195,0.13815
132.54,-0.0021,0.1383
132.56,-0.00225,0.13845
132.58,-0.00225,0.1386
132.6,-0.00225,0.1386
132.62,-0.00225,0.1386
132.639,-0.00255,0.13875
132.66,-0.00225,0.13845
132.68,-0.00225,0.13845
132.7,-0.00225,0.1386
132.72,-0.00225,0.13845
132.739,-0.00255,0.1386
132.76,-0.00225,0.1386
132.78,-0.00225,0.13845
132.8,-0.00225,0.1383
132.82,-0.0021,0.1383
132.839,-0.00255,0.1386
132.86,-0.00225,0.1386
132.88,-0.00225,0.13875
132.9,-0.00225,0.13875
132.92,-0.00225,0.1386
132.94,-0.00225,0.1389
132.96,-0.00195,0.13875
132.98,-0.00225,0.1389
132.999,-0.0024,0.1389
133.021,-0.00195,0.13875
133.04,-0.00225,0.1386
133.06,-0.00225,0.1386
133.08,-0.0021,0.1386
133.1,-0.00225,0.1383
133.121,-0.0018,0.13815
133.14,-0.0021,0.1383
133.16,-0.0021,0.13845
133.18,-0.0021,0.1383
133.2,-0.0021,0.1383
133.22,-0.0021,0.1383
133.24,-0.0021,0.1383
133.261,-0.0018,0.138
133.28,-0.0018,0.1383
133.3,-0.0018,0.1383
133.32,-0.0018,0.13815
133.34,-0.00195,0.13815
133.36,-0.0018,0.13815
133.38,-0.0018,0.1386
133.4,-0.0021,0.13875
133.42,-0.0021,0.13875
133.44,-0.0021,0.1386
133.461,-0.0018,0.13845
133.48,-0.0021,0.13845
133.5,-0.0021,0.13815
133.52,-0.0021,0.13815
133.539,-0.0024,0.13815
133.56,-0.0018,0.13845
133.58,-0.0018,0.13845
133.6,-0.0018,0.13815
133.62,-0.0018,0.1383
133.639,-0.0021,0.13845
133.66,-0.0018,0.1383
133.68,-0.0018,0.13845
133.7,-0.0018,0.1383
133.72,-0.0018,0.13815
133.739,-0.0024,0.13815
133.76,-0.0021,0.138
133.78,-0.00195,0.13815
133.8,-0.0021,0.1383
133.82,-0.0021,0.1383
133.841,-0.0018,0.1386
133.86,-0.0021,0.1386
133.88,-0.0021,0.13845
133.9,-0.00195,0.1383
133.92,-0.0021,0.13815
133.941,-0.0018,0.138
133.96,-0.0018,0.138
133.98,-0.0018,0.13815
134,-0.0018,0.138
134.02,-0.0018,0.138
134.04,-0.0018,0.13815
134.06,-0.0018,0.13815
134.081,-0.0018,0.13815
134.1,-0.00195,0.13815
134.12,-0.0021,0.138
134.14,-0.0021,0.138
134.159,-0.0021,0.138
134.18,-0.0018,0.13815
134.2,-0.0018,0.1383
134.22,-0.0018,0.13815
134.24,-0.0018,0.13815
134.26,-0.0021,0.13815
134.281,-0.0018,0.13785
134.3,-0.0018,0.13785
134.32,-0.0018,0.138
134.34,-0.0018,0.138
134.36,-0.0018,0.13785
134.38,-0.0018,0.1377
134.4,-0.0018,0.1377
134.421,-0.0018,0.138
134.44,-0.00195,0.138
134.46,-0.00195,0.138
134.48,-0.00195,0.138
134.5,-0.00195,0.1383
134.521,-0.0018,0.1383
134.54,-0.0018,0.13845
134.56,-0.00195,0.13845
134.58,-0.00195,0.13815
134.599,-0.00195,0.13815
134.62,-0.0018,0.138
134.64,-0.0018,0.13815
134.66,-0.00195,0.13815
134.681,-0.0018,0.1383
134.701,-0.0018,0.13815
134.721,-0.00165,0.13815
134.74,-0.00165,0.13815
134.76,-0.0018,0.13815
134.78,-0.0018,0.13815
134.8,-0.0018,0.13815
134.821,-0.00135,0.13815
134.841,-0.0015,0.138
134.86,-0.00195,0.138
134.88,-0.00165,0.13815
134.9,-0.00165,0.13815
134.92,-0.00165,0.13815
134.94,-0.0018,0.1383
134.96,-0.00195,0.1383
134.981,-0.00165,0.1383
135,-0.00195,0.13845
135.02,-0.0018,0.1383
135.04,-0.00195,0.1383
135.059,-0.00225,0.13815
135.08,-0.00195,0.13845
135.1,-0.00195,0.13845
135.12,-0.0018,0.13845
135.14,-0.00195,0.13845
135.159,-0.00195,0.13815
135.18,-0.00165,0.138
135.2,-0.00195,0.138
135.22,-0.00195,0.138
135.24,-0.00195,0.13785
135.259,-0.00195,0.138
135.28,-0.00165,0.138
135.3,-0.00165,0.13785
135.32,-0.0015,0.138
135.341,-0.00165,0.1383
135.359,-0.0018,0.1383
135.38,-0.00165,0.13845
135.4,-0.0015,0.13845
135.42,-0.00165,0.1383
135.44,-0.00165,0.1383
135.459,-0.0018,0.1383
135.48,-0.0015,0.1383
135.5,-0.00165,0.1383
135.521,-0.00135,0.13845
135.54,-0.0015,0.1386
135.559,-0.0018,0.1386
135.58,-0.0015,0.1383
135.6,-0.00165,0.1383
135.62,-0.0015,0.138
135.64,-0.00165,0.13815
135.66,-0.0018,0.1383
135.68,-0.0018,0.1383
135.7,-0.0018,0.1383
135.72,-0.0018,0.13815
135.74,-0.0018,0.138
135.76,-0.0018,0.13785
135.781,-0.0015,0.138
135.801,-0.0015,0.138
135.82,-0.0015,0.138
135.84,-0.00165,0.138
135.86,-0.0018,0.13815
135.881,-0.0015,0.138
135.901,-0.0015,0.13815
135.921,-0.0015,0.13815
135.941,-0.0015,0.1383
135.96,-0.0015,0.1383
135.98,-0.0015,0.13815
136,-0.0015,0.13815
136.02,-0.0015,0.13815
136.04,-0.0015,0.1383
136.06,-0.0015,0.1383
136.08,-0.0018,0.13815
136.1,-0.0018,0.13815
136.12,-0.0018,0.138
136.14,-0.0018,0.1383
136.159,-0.0018,0.1383
136.18,-0.0015,0.1383
136.2,-0.0015,0.13815
136.22,-0.0015,0.13815
136.24,-0.0015,0.1383
136.26,-0.0018,0.1383
136.28,-0.0018,0.13815
136.301,-0.0015,0.138
136.32,-0.0015,0.13815
136.34,-0.0015,0.13815
136.36,-0.0015,0.1383
136.38,-0.0015,0.1383
136.4,-0.0015,0.13815
136.42,-0.0018,0.1383
136.44,-0.0018,0.13845
136.459,-0.0018,0.1386
136.48,-0.0015,0.13845
136.5,-0.0015,0.1383
136.52,-0.0015,0.13845
136.54,-0.0015,0.13845
136.56,-0.00165,0.1386
136.58,-0.0018,0.1386
136.601,-0.0015,0.1386
136.621,-0.0015,0.13845
136.64,-0.0018,0.1386
136.659,-0.00195,0.13845
136.68,-0.0018,0.13845
136.7,-0.0018,0.13845
136.72,-0.0018,0.13845
136.74,-0.0018,0.1389
136.76,-0.00165,0.1386
136.781,-0.0015,0.13845
136.8,-0.0015,0.13845
136.82,-0.0015,0.13845
136.841,-0.0012,0.1383
136.86,-0.0015,0.1383
136.881,-0.0012,0.1386
136.9,-0.0015,0.1386
136.92,-0.00135,0.1386
136.941,-0.0012,0.1386
136.961,-0.0015,0.1386
136.98,-0.00135,0.1386
137.001,-0.0012,0.1383
137.022,-0.0012,0.1383
137.04,-0.0015,0.13845
137.059,-0.0018,0.13845
137.08,-0.0015,0.13845
137.101,-0.0012,0.13845
137.12,-0.0015,0.13845
137.14,-0.0015,0.13845
137.16,-0.0015,0.13845
137.18,-0.0018,0.1383
137.2,-0.0018,0.1383
137.221,-0.00135,0.1383
137.24,-0.00135,0.1383
137.26,-0.0015,0.1383
137.28,-0.0018,0.13845
137.3,-0.00135,0.13815
137.321,-0.00105,0.1383
137.34,-0.0018,0.1383
137.361,-0.0015,0.138
137.379,-0.0018,0.13815
137.4,-0.00135,0.138
137.42,-0.00135,0.13815
137.44,-0.0015,0.138
137.46,-0.0015,0.13815
137.48,-0.00165,0.13815
137.501,-0.00105,0.13815
137.52,-0.00135,0.1383
137.54,-0.00135,0.13815
137.56,-0.0015,0.13785
137.58,-0.00135,0.138
137.6,-0.00165,0.13785
137.62,-0.00165,0.138
137.64,-0.00165,0.1383
137.66,-0.00165,0.1383
137.679,-0.00195,0.1383
137.7,-0.00165,0.1383
137.72,-0.00165,0.13845
137.74,-0.00165,0.1386
137.76,-0.00165,0.1386
137.779,-0.0018,0.1386
137.8,-0.00165,0.13845
137.82,-0.00165,0.1383
137.84,-0.00165,0.13815
137.86,-0.00165,0.1383
137.88,-0.00135,0.1383
137.901,-0.00135,0.1383
137.92,-0.00135,0.13845
137.94,-0.00135,0.1386
137.96,-0.00135,0.13875
137.98,-0.00135,0.13845
138,-0.00135,0.13845
138.02,-0.00135,0.13845
138.04,-0.00135,0.13845
138.06,-0.00135,0.13845
138.08,-0.00165,0.13845
138.101,-0.00135,0.13845
138.121,-0.00135,0.13845
138.14,-0.00135,0.1386
138.16,-0.00135,0.1386
138.18,-0.00135,0.1389
138.201,-0.00135,0.1389
138.221,-0.00135,0.1389
138.24,-0.0015,0.13875
138.26,-0.00135,0.1386
138.28,-0.00135,0.13845
138.3,-0.0015,0.1386
138.32,-0.0015,0.13875
138.341,-0.00135,0.1386
138.361,-0.00135,0.13845
138.381,-0.00135,0.1386
138.4,-0.00135,0.1383
138.42,-0.00135,0.1383
138.44,-0.00135,0.13845
138.46,-0.0012,0.13845
138.48,-0.0015,0.1386
138.5,-0.0015,0.1383
138.52,-0.0015,0.13845
138.54,-0.0015,0.1386
138.56,-0.0015,0.13845
138.58,-0.0015,0.1383
138.599,-0.0018,0.1383
138.62,-0.0015,0.1383
138.64,-0.0015,0.1383
138.66,-0.0015,0.1383
138.68,-0.0015,0.13815
138.7,-0.0012,0.138
138.72,-0.0012,0.13815
138.74,-0.0012,0.138
138.76,-0.00135,0.138
138.78,-0.00135,0.138
138.799,-0.0015,0.138
138.82,-0.0012,0.138
138.84,-0.0012,0.138
138.86,-0.0012,0.138
138.881,-0.0009,0.13815
138.9,-0.0012,0.1383
138.92,-0.0015,0.1383
138.94,-0.0015,0.1383
138.96,-0.0015,0.13815
138.98,-0.0015,0.13845
138.999,-0.0018,0.13845
139.02,-0.0015,0.13845
139.04,-0.0015,0.1383
139.06,-0.0015,0.1383
139.08,-0.0015,0.13815
139.099,-0.0018,0.1383
139.12,-0.0015,0.1383
139.14,-0.0015,0.13815
139.16,-0.0012,0.13815
139.18,-0.0012,0.13815
139.2,-0.0012,0.13815
139.22,-0.0012,0.13845
139.24,-0.0012,0.1383
139.26,-0.0012,0.1383
139.28,-0.0015,0.138
139.299,-0.00135,0.138
139.32,-0.0015,0.138
139.34,-0.0015,0.13815
139.36,-0.0015,0.13815
139.38,-0.0015,0.13815
139.4,-0.0015,0.138
139.42,-0.0015,0.13815
139.44,-0.0015,0.13815
139.46,-0.00135,0.1383
139.481,-0.0012,0.1383
139.5,-0.00135,0.138
139.52,-0.0015,0.138
139.54,-0.0012,0.138
139.56,-0.0012,0.138
139.58,-0.0012,0.1383
139.599,-0.00135,0.13845
139.62,-0.00105,0.1383
139.64,-0.0012,0.13845
139.66,-0.0012,0.13815
139.68,-0.00105,0.13815
139.7,-0.00105,0.13815
139.72,-0.0012,0.13815
139.74,-0.0012,0.1383
139.76,-0.00135,0.1383
139.78,-0.00135,0.138
139.8,-0.00135,0.13815
139.82,-0.00105,0.13815
139.84,-0.00135,0.138
139.859,-0.00135,0.138
139.88,-0.00135,0.138
139.9,-0.00135,0.13815
139.92,-0.00105,0.13815
139.94,-0.00105,0.13815
139.96,-0.0012,0.13815
139.98,-0.00105,0.1383
140,-0.00105,0.13815
140.02,-0.00105,0.1383
140.04,-0.00105,0.13845
140.06,-0.00105,0.13845
140.079,-0.00135,0.1386
140.1,-0.00105,0.1386
140.12,-0.00135,0.1386
140.14,-0.00105,0.1383
140.16,-0.00105,0.1383
140.18,-0.00105,0.1383
140.2,-0.00105,0.1383
140.221,-0.00075,0.1383
140.24,-0.00105,0.13815
140.26,-0.00105,0.1383
140.28,-0.00105,0.1383
140.3,-0.00105,0.1383
140.32,-0.00105,0.13815
140.341,-0.00075,0.13815
140.361,-0.00075,0.13815
140.381,-0.00075,0.13815
140.4,-0.00105,0.1383
140.42,-0.00105,0.1383
140.44,-0.00105,0.1383
140.46,-0.00105,0.13815
140.48,-0.00105,0.138
140.5,-0.00105,0.1383
140.519,-0.00135,0.1383
140.54,-0.00105,0.13845
140.56,-0.00105,0.13845
140.581,-0.00105,0.1383
140.6,-0.00135,0.1383
140.62,-0.00135,0.13815
140.64,-0.00135,0.138
140.66,-0.00135,0.138
140.68,-0.00135,0.138
140.7,-0.00135,0.1383
140.72,-0.00135,0.1383
140.74,-0.00135,0.1383
140.76,-0.00135,0.13845
140.781,-0.00105,0.13845
140.801,-0.00105,0.13845
140.82,-0.00135,0.13845
140.841,-0.00105,0.1383
140.86,-0.00105,0.1383
140.88,-0.00105,0.13845
140.9,-0.00105,0.1383
140.92,-0.00105,0.13815
140.94,-0.00135,0.1383
140.96,-0.00135,0.13815
140.98,-0.00135,0.13815
141.001,-0.00105,0.13815
141.019,-0.00135,0.1383
141.04,-0.00105,0.13815
141.06,-0.00105,0.138
141.08,-0.00105,0.13815
141.1,-0.00135,0.1383
141.12,-0.00135,0.13815
141.14,-0.00135,0.13815
141.16,-0.00135,0.13815
141.18,-0.00135,0.138
141.2,-0.00135,0.1383
141.219,-0.00135,0.13845
141.24,-0.0009,0.1383
141.26,-0.00105,0.1383
141.28,-0.00105,0.1386
141.3,-0.00105,0.1383
141.319,-0.0012,0.13815
141.34,-0.00105,0.1383
141.36,-0.00105,0.1386
141.38,-0.00105,0.13845
141.4,-0.0009,0.1383
141.419,-0.00135,0.13815
141.44,-0.00105,0.138
141.46,-0.0009,0.138
141.48,-0.00105,0.13785
141.5,-0.00105,0.138
141.52,-0.00105,0.13815
141.54,-0.0009,0.13815
141.56,-0.00105,0.13815
141.581,-0.00105,0.138
141.601,-0.0009,0.138
141.619,-0.00135,0.138
141.64,-0.00105,0.13815
141.66,-0.0009,0.1383
141.68,-0.0009,0.1383
141.7,-0.00105,0.13845
141.72,-0.0009,0.1383
141.74,-0.0009,0.13845
141.76,-0.00105,0.1383
141.78,-0.0009,0.13815
141.8,-0.00105,0.13815
141.82,-0.0009,0.1383
141.84,-0.0009,0.13845
141.859,-0.0012,0.13845
141.881,-0.0009,0.1383
141.9,-0.0009,0.13845
141.921,-0.0009,0.1383
141.941,-0.0009,0.1383
141.96,-0.0009,0.1383
141.981,-0.00075,0.13815
142,-0.0009,0.1383
142.02,-0.0012,0.1383
142.04,-0.0012,0.1383
142.06,-0.0012,0.138
142.08,-0.0012,0.13785
142.101,-0.0009,0.138
142.12,-0.0012,0.1383
142.14,-0.0012,0.1383
142.161,-0.0009,0.13845
142.18,-0.0012,0.1383
142.201,-0.0009,0.13815
142.22,-0.0009,0.13815
142.24,-0.0009,0.13815
142.26,-0.0009,0.13815
142.281,-0.0006,0.13815
142.301,-0.00075,0.13815
142.32,-0.0009,0.13815
142.34,-0.0009,0.1383
142.36,-0.0012,0.13845
142.38,-0.0012,0.13845
142.4,-0.0012,0.13845
142.42,-0.0012,0.1386
142.44,-0.0012,0.13845
142.46,-0.0012,0.13845
142.48,-0.0012,0.13845
142.5,-0.0012,0.1386
142.52,-0.0012,0.1386
142.54,-0.0012,0.13845
142.56,-0.0012,0.13845
142.581,-0.0009,0.1386
142.601,-0.0009,0.1386
142.62,-0.0009,0.1386
142.64,-0.0009,0.13845
142.66,-0.00075,0.13845
142.68,-0.00075,0.13845
142.7,-0.00075,0.13875
142.72,-0.0009,0.13845
142.74,-0.00075,0.13845
142.76,-0.0009,0.1386
142.781,-0.0009,0.13845
142.8,-0.00075,0.13815
142.82,-0.00075,0.13815
142.84,-0.00075,0.1383
142.86,-0.00075,0.1383
142.88,-0.00075,0.13845
142.9,-0.00075,0.1386
142.919,-0.00135,0.1383
142.94,-0.0012,0.13815
142.96,-0.00105,0.1383
142.98,-0.00075,0.13845
143,-0.00075,0.1386
143.02,-0.00075,0.1386
143.04,-0.0009,0.1386
143.06,-0.00075,0.1386
143.08,-0.00075,0.13845
143.1,-0.00075,0.13845
143.12,-0.00075,0.1386
143.14,-0.00075,0.1389
143.16,-0.00075,0.13875
143.18,-0.00105,0.13875
143.2,-0.00105,0.1386
143.219,-0.00135,0.13845
143.24,-0.00105,0.13845
143.26,-0.00105,0.1386
143.28,-0.00105,0.1386
143.3,-0.00105,0.1386
143.32,-0.00105,0.13845
143.341,-0.00075,0.1383
143.361,-0.00075,0.1383
143.38,-0.00075,0.1386
143.4,-0.00075,0.13845
143.42,-0.00075,0.1383
143.44,-0.00075,0.13815
143.461,-0.0006,0.138
143.48,-0.00075,0.138
143.5,-0.00075,0.138
143.52,-0.00075,0.13815
143.539,-0.00105,0.13815
143.56,-0.00075,0.1383
143.58,-0.00075,0.1383
143.601,-0.0006,0.1383
143.621,-0.0006,0.1383
143.64,-0.00075,0.1383
143.66,-0.00075,0.1383
143.68,-0.00075,0.13845
143.7,-0.0006,0.13845
143.72,-0.00075,0.13875
143.74,-0.00105,0.1386
143.76,-0.0006,0.1386
143.78,-0.00075,0.13845
143.8,-0.0006,0.1386
143.82,-0.00075,0.13845
143.839,-0.00105,0.1383
143.86,-0.0006,0.138
143.88,-0.00075,0.13815
143.899,-0.00105,0.1383
143.92,-0.00075,0.13845
143.94,-0.00075,0.13845
143.961,-0.0006,0.1383
143.98,-0.00075,0.1383
144,-0.0009,0.1383
144.02,-0.00105,0.13815
144.039,-0.00105,0.138
144.06,-0.0006,0.13815
144.08,-0.0006,0.13815
144.1,-0.0006,0.1383
144.12,-0.0009,0.13815
144.14,-0.00105,0.138
144.16,-0.00105,0.13815
144.18,-0.00105,0.13815
144.2,-0.00105,0.1383
144.22,-0.0006,0.13815
144.24,-0.00105,0.138
144.261,-0.00075,0.13815
144.281,-0.0006,0.13845
144.3,-0.00075,0.1383
144.32,-0.0006,0.1383
144.34,-0.0006,0.13815
144.36,-0.0009,0.13815
144.379,-0.00105,0.13815
144.401,-0.00075,0.13815
144.421,-0.00075,0.1383
144.439,-0.00105,0.13845
144.46,-0.0006,0.1383
144.48,-0.00075,0.13815
144.5,-0.00105,0.1383
144.52,-0.00105,0.1386
144.539,-0.0009,0.13845
144.56,-0.0012,0.13845
144.58,-0.0006,0.13845
144.6,-0.00075,0.13845
144.62,-0.0009,0.1386
144.641,-0.0006,0.13845
144.66,-0.0006,0.13845
144.68,-0.0006,0.13845
144.7,-0.0006,0.13845
144.72,-0.00105,0.13845
144.74,-0.00105,0.1383
144.761,-0.0006,0.1383
144.78,-0.00105,0.1383
144.8,-0.00105,0.1383
144.821,-0.00105,0.1383
144.839,-0.00135,0.1383
144.86,-0.00105,0.13815
144.88,-0.00105,0.13815
144.9,-0.00105,0.1383
144.92,-0.00105,0.1383
144.94,-0.0009,0.1383
144.96,-0.00045,0.13845
144.98,-0.0009,0.13845
145.001,-0.0006,0.1383
145.02,-0.0009,0.1383
145.041,-0.0006,0.1383
145.06,-0.00105,0.1383
145.08,-0.0009,0.1383
145.1,-0.0009,0.1383
145.12,-0.00045,0.13815
145.14,-0.0009,0.1383
145.159,-0.0009,0.1383
145.18,-0.0009,0.1383
145.2,-0.0006,0.1386
145.22,-0.0006,0.1386
145.241,-0.00075,0.1383
145.26,-0.0009,0.13815
145.28,-0.00105,0.1383
145.3,-0.0009,0.13815
145.32,-0.0009,0.13815
145.341,-0.00045,0.138
145.36,-0.0009,0.1383
145.38,-0.00105,0.1383
145.401,-0.00045,0.13845
145.42,-0.0006,0.1386
145.44,-0.00105,0.13845
145.46,-0.0009,0.1383
145.48,-0.0009,0.1386
145.5,-0.0006,0.13845
145.52,-0.00075,0.1383
145.54,-0.00105,0.1383
145.559,-0.0009,0.13845
145.58,-0.0006,0.1386
145.6,-0.00075,0.13845
145.62,-0.00075,0.1383
145.64,-0.00105,0.1383
145.659,-0.0009,0.1383
145.68,-0.0009,0.1383
145.7,-0.0009,0.13845
145.72,-0.0009,0.13845
145.741,-0.0009,0.13845
145.76,-0.0009,0.13845
145.781,-0.0006,0.1383
145.8,-0.0009,0.13815
145.82,-0.0009,0.13815
145.84,-0.00075,0.13815
145.86,-0.00105,0.1383
145.879,-0.0009,0.13845
145.9,-0.0006,0.1383
145.92,-0.00105,0.13845
145.94,-0.0006,0.13845
145.959,-0.0009,0.1386
145.98,-0.0006,0.1383
146,-0.00075,0.1383
146.02,-0.00075,0.1383
146.04,-0.0006,0.1383
146.06,-0.0009,0.1386
146.08,-0.0009,0.13875
146.101,-0.00075,0.1386
146.12,-0.00075,0.1386
146.14,-0.00075,0.1389
146.161,-0.0006,0.1389
146.181,-0.0006,0.1386
146.2,-0.00075,0.13875
146.22,-0.00075,0.13875
146.24,-0.0006,0.13875
146.26,-0.0006,0.1389
146.28,-0.00075,0.1389
146.3,-0.00075,0.13875
146.32,-0.0009,0.13875
146.34,-0.0009,0.1389
146.36,-0.0009,0.13875
146.38,-0.00075,0.13875
146.4,-0.0006,0.1386
146.42,-0.00075,0.1386
146.441,-0.0006,0.13875
146.46,-0.00075,0.13875
146.481,-0.00075,0.1386
146.501,-0.0006,0.1386
146.521,-0.0006,0.13845
146.54,-0.0006,0.1383
146.561,-0.0006,0.13845
146.58,-0.0006,0.1386
146.6,-0.0006,0.1386
146.62,-0.00075,0.1386
146.641,-0.0006,0.1386
146.661,-0.0006,0.1386
146.681,-0.0006,0.1386
146.7,-0.0006,0.1386
146.721,-0.0006,0.13845
146.74,-0.00075,0.1383
146.76,-0.0009,0.1383
146.78,-0.00075,0.13815
146.8,-0.00075,0.13815
146.82,-0.00075,0.13815
146.84,-0.00075,0.13815
146.86,-0.0006,0.13815
146.88,-0.00075,0.13815
146.9,-0.0006,0.13815
146.921,-0.0006,0.13845
146.94,-0.0006,0.13845
146.96,-0.0006,0.13845
146.979,-0.00075,0.13815
147,-0.0006,0.13815
147.02,-0.00075,0.1383
147.04,-0.00075,0.1383
147.06,-0.00075,0.1383
147.08,-0.00075,0.1383
147.1,-0.00075,0.13845
147.12,-0.00075,0.13845
147.141,-0.0006,0.13845
147.161,-0.0006,0.1383
147.18,-0.00075,0.1383
147.2,-0.0006,0.13815
147.22,-0.0006,0.13815
147.24,-0.0006,0.13815
147.261,-0.0006,0.1383
147.28,-0.0006,0.13815
147.3,-0.0006,0.138
147.32,-0.00075,0.138
147.34,-0.00075,0.13815
147.36,-0.00075,0.13815
147.38,-0.00075,0.138
147.4,-0.00075,0.138
147.42,-0.00075,0.13815
147.44,-0.00075,0.13815
147.46,-0.00075,0.1383
147.481,-0.0006,0.13845
147.501,-0.0006,0.1386
147.52,-0.0006,0.13845
147.54,-0.0006,0.13845
147.56,-0.0006,0.1383
147.579,-0.00075,0.1383
147.6,-0.0006,0.1383
147.62,-0.0006,0.1386
147.64,-0.0006,0.13845
147.66,-0.0006,0.13845
147.68,-0.0006,0.1386
147.7,-0.0006,0.1383
147.72,-0.0006,0.1383
147.74,-0.0006,0.13815
147.76,-0.0006,0.138
147.78,-0.00075,0.1383
147.8,-0.00075,0.1386
147.82,-0.0006,0.1386
147.84,-0.0006,0.1386
147.86,-0.00075,0.1383
147.88,-0.0006,0.13845
147.9,-0.0006,0.1383
147.92,-0.00105,0.1383
147.94,-0.0009,0.1383
147.961,-0.0006,0.1386
147.98,-0.00045,0.13875
148,-0.0006,0.13875
148.02,-0.0006,0.13845
148.04,-0.00045,0.1386
148.06,-0.00045,0.1389
148.08,-0.00075,0.1389
148.101,-0.0006,0.1389
148.121,-0.0006,0.13875
148.141,-0.0006,0.13845
148.161,-0.0006,0.13875
148.18,-0.0006,0.13875
148.201,-0.0006,0.13875
148.22,-0.0006,0.1386
148.24,-0.0006,0.1386
148.261,-0.0006,0.1386
148.28,-0.0006,0.1386
148.3,-0.0006,0.1386
148.32,-0.0006,0.1386
148.34,-0.0006,0.1386
148.36,-0.0006,0.13845
148.38,-0.0006,0.13845
148.4,-0.0006,0.13845
148.42,-0.00105,0.13845
148.44,-0.00045,0.1383
148.46,-0.0009,0.13845
148.48,-0.0009,0.13845
148.499,-0.00105,0.13845
148.52,-0.0006,0.13845
148.54,-0.0006,0.1386
148.56,-0.0006,0.1386
148.58,-0.0006,0.1386
148.6,-0.00105,0.1386
148.62,-0.00105,0.13845
148.64,-0.0006,0.13845
148.66,-0.00105,0.1383
148.68,-0.0006,0.1383
148.7,-0.0006,0.13845
148.72,-0.00075,0.1383
148.741,-0.0006,0.13845
148.76,-0.0006,0.13845
148.781,-0.0006,0.13845
148.801,-0.0006,0.13845
148.82,-0.0006,0.1383
148.84,-0.0006,0.13845
148.86,-0.0006,0.1386
148.88,-0.0009,0.1386
148.9,-0.00075,0.1386
148.919,-0.0006,0.1386
148.94,-0.0006,0.13845
148.96,-0.0006,0.1383
148.98,-0.0006,0.13815
149,-0.00075,0.1383
149.02,-0.0006,0.1383
149.04,-0.00075,0.13845
149.06,-0.00105,0.1386
149.081,-0.0006,0.1386
149.1,-0.00105,0.1383
149.119,-0.0009,0.1386
149.14,-0.00105,0.1386
149.16,-0.00075,0.1386
149.181,-0.0006,0.13875
149.2,-0.00105,0.1386
149.219,-0.0009,0.13845
149.24,-0.0006,0.13845
149.26,-0.0009,0.13845
149.28,-0.00105,0.1386
149.3,-0.0006,0.1386
149.321,-0.0006,0.1383
149.34,-0.00105,0.1383
149.361,-0.0006,0.138
149.38,-0.0006,0.13815
149.4,-0.0006,0.13845
149.42,-0.00075,0.13845
149.44,-0.0006,0.13845
149.46,-0.0006,0.1383
149.48,-0.0006,0.1383
149.5,-0.0006,0.1383
149.52,-0.0006,0.13815
149.54,-0.0006,0.1383
149.56,-0.0006,0.13815
149.58,-0.0006,0.138
149.6,-0.00075,0.138
149.621,-0.0006,0.13815
149.64,-0.00075,0.13845
149.66,-0.00075,0.1383
149.68,-0.00075,0.13845
149.7,-0.00075,0.1383
149.72,-0.00075,0.13815
149.74,-0.00075,0.138
149.76,-0.00075,0.13815
149.78,-0.00075,0.1383
149.801,-0.0006,0.1383
149.82,-0.00075,0.13815
149.84,-0.00045,0.1383
149.86,-0.0006,0.138
149.88,-0.0006,0.138
149.901,-0.0006,0.13815
149.92,-0.00075,0.138
149.94,-0.00075,0.138
149.961,-0.0006,0.13815
149.98,-0.0006,0.138
150,-0.0006,0.138
